#     FILENAME=Skynet_59313_ASTR_M31_Langgin_Rachel_54392_3314.A.onoff.cal.txt
#     BASENAME=Skynet_59313_ASTR_M31_Langgin_Rachel_54392_3314
#      CONTROL=SKYNET
#     PROJCODE=Skynet_59313_ASTR_M31_Langgin_Rachel_54392
#     DATAROOT=/raid/scratch/cyborg/SkynetData
#      DATADIR=/raid/scratch/cyborg
#     DATADIR2=/raid/scratch/cyborg/SkynetData/Skynet_59313_ASTR_M31_Langgin_R
#     SCANNAME=2019_06_26_10
#     SRC_NAME=ASTR_M31_Langgin_Rachel
#     OBSERVER=haverford2_26746
#     DATE_OBS=2021-04-09T17:27:21.990
#        OBSID=54392
#      SCANNUM=3314
#          MJD=59313.7273378
#          UTC=62842
#     SCANTYPE=offon
#     DATAMODE=HIRES
#     RECEIVER=Rx1_2
#      OBSFREQ=1395.0000
# Actual_FREQ1=1421.8800,
# Actual_FREQ2=1406.2550
#    LO1Tuning=6856.2600
#     RFFILTER=1355_1435
#        OBSBW=-15.6250
#     EFFBANDW=15.6250
#        NCHAN=1024
#    STARTCHAN=51
#     STOPCHAN=972
#         TINT=0.9999
#         TBIN=0.00419430
#       ACCLEN=2048 
#     DURATION=449.00
#     EXPOSURE=401.98
#        FOCUS=37.115
#       RA,DEC=00:59:00.40, 41:16:07.05
#      RA(deg)=12.68512
#     DEC(deg)=41.26870
#   WIDTH(deg)=3.0136x0.0183
#    AZIM(deg)=298.8178
#    ELEV(deg)=82.9771
#     COORDREF=RA_DEC_
#         HREF=10.6846
#         VREF=41.2687
#      RADESYS=FK5
#       OFFSYS=RADEC
#      EQUINOX=2000.00
#     IFATTENS=22.00, 14.00
#   BALANCELEV=1.200 
#   POWER_XLYR=[1.32, 1.23] 
#       VELDEF=RADI-OBS 
#     VELOCITY=0.000 
#         NPOL=2 
#      POLMODE=Linear 
#      POLTYPE=XXYY 
#      WARNING=None 
#     NOISECAL=HI 
#       PRECAL=5 
#      POSTCAL=5 
#     CRYOTEMP=15 
#      BOXTEMP=29 
#         TSYS=XX1:34.60, YY1:53.71
#         TSYS=XX2:38.95, YY2:46.65
#         TCAL=XX1:9.17, YY1:10.07
#         TCAL=XX2:9.16, YY2:9.99
# Calibrated spectra: Tsys*(ON-OFF)/OFF 
#                
#                
#Freq1(MHz)         XX1          YY1   Freq2(MHz)       XX2         YY2 
   1428.91430      -3.4994     -11.6610    1413.28930      -4.3298      -9.7405
   1428.89904      -3.4673     -11.5747    1413.27404      -4.3158      -9.7747
   1428.88378      -3.5225     -11.6520    1413.25878      -4.2949      -9.7466
   1428.86853      -3.5226     -11.5552    1413.24353      -4.2850      -9.7069
   1428.85327      -3.5218     -11.6206    1413.22827      -4.3146      -9.7376
   1428.83801      -3.4641     -11.5394    1413.21301      -4.3356      -9.7281
   1428.82275      -3.4796     -11.5287    1413.19775      -4.3180      -9.7289
   1428.80749      -3.4802     -11.5498    1413.18249      -4.3208      -9.7446
   1428.79223      -3.5024     -11.5842    1413.16723      -4.3531      -9.7048
   1428.77697      -3.4672     -11.6361    1413.15197      -4.3088      -9.7784
   1428.76171      -3.4507     -11.5978    1413.13671      -4.3486      -9.6979
   1428.74646      -3.4731     -11.5803    1413.12146      -4.3694      -9.7184
   1428.73120      -3.4851     -11.5492    1413.10620      -4.3811      -9.7064
   1428.71594      -3.4456     -11.5573    1413.09094      -4.3470      -9.7519
   1428.70068      -3.4584     -11.5534    1413.07568      -4.3880      -9.6906
   1428.68542      -3.4001     -11.5932    1413.06042      -4.3412      -9.7105
   1428.67016      -3.4193     -11.5989    1413.04516      -4.3707      -9.6613
   1428.65490      -3.4229     -11.5847    1413.02990      -4.4107      -9.6337
   1428.63964      -3.3854     -11.4830    1413.01464      -4.3388      -9.7200
   1428.62438      -3.4123     -11.5421    1412.99938      -4.3720      -9.6694
   1428.60913      -3.3708     -11.5334    1412.98413      -4.3998      -9.6871
   1428.59387      -3.3934     -11.5498    1412.96887      -4.4278      -9.6939
   1428.57861      -3.4298     -11.5576    1412.95361      -4.3599      -9.6803
   1428.56335      -3.4072     -11.5501    1412.93835      -4.4080      -9.6437
   1428.54809      -3.3764     -11.4988    1412.92309      -4.3598      -9.7022
   1428.53283      -3.3763     -11.5223    1412.90783      -4.3682      -9.7328
   1428.51757      -3.3367     -11.5482    1412.89257      -4.4355      -9.6972
   1428.50231      -3.3441     -11.5376    1412.87731      -4.3590      -9.7063
   1428.48706      -3.3712     -11.5236    1412.86206      -4.4678      -9.6911
   1428.47180      -3.3381     -11.4627    1412.84680      -4.4224      -9.6219
   1428.45654      -3.3392     -11.5131    1412.83154      -4.3863      -9.6702
   1428.44128      -3.3300     -11.5596    1412.81628      -4.3955      -9.6912
   1428.42602      -3.3725     -11.5333    1412.80102      -4.4253      -9.6658
   1428.41076      -3.3210     -11.5022    1412.78576      -4.3900      -9.6409
   1428.39550      -3.3166     -11.4659    1412.77050      -4.4240      -9.6385
   1428.38024      -3.3372     -11.4480    1412.75524      -4.4179      -9.6585
   1428.36499      -3.3178     -11.4873    1412.73999      -4.4757      -9.6855
   1428.34973      -3.3176     -11.4968    1412.72473      -4.4227      -9.7092
   1428.33447      -3.3522     -11.5017    1412.70947      -4.4076      -9.6686
   1428.31921      -3.3320     -11.4339    1412.69421      -4.4764      -9.6693
   1428.30395      -3.2939     -11.4800    1412.67895      -4.5051      -9.6409
   1428.28869      -3.3274     -11.4520    1412.66369      -4.4545      -9.6232
   1428.27343      -3.2828     -11.5272    1412.64843      -4.4419      -9.5928
   1428.25817      -3.2820     -11.4488    1412.63317      -4.4813      -9.6410
   1428.24292      -3.2791     -11.4329    1412.61792      -4.4441      -9.6406
   1428.22766      -3.3259     -11.5026    1412.60266      -4.4455      -9.6365
   1428.21240      -3.2567     -11.4411    1412.58740      -4.4266      -9.6596
   1428.19714      -3.2636     -11.3819    1412.57214      -4.4176      -9.5996
   1428.18188      -3.2699     -11.4413    1412.55688      -4.4348      -9.6017
   1428.16662      -3.2658     -11.4098    1412.54162      -4.4833      -9.5625
   1428.15136      -3.2297     -11.3627    1412.52636      -4.4352      -9.6013
   1428.13610      -3.2821     -11.3908    1412.51110      -4.5224      -9.5531
   1428.12084      -3.1990     -11.3576    1412.49584      -4.5009      -9.6579
   1428.10559      -3.2595     -11.3854    1412.48059      -4.4916      -9.6117
   1428.09033      -3.2555     -11.3841    1412.46533      -4.4372      -9.5806
   1428.07507      -3.2509     -11.3347    1412.45007      -4.5046      -9.6324
   1428.05981      -3.2525     -11.4051    1412.43481      -4.4443      -9.6383
   1428.04455      -3.2189     -11.3287    1412.41955      -4.4701      -9.6221
   1428.02929      -3.2407     -11.3992    1412.40429      -4.4963      -9.5811
   1428.01403      -3.2223     -11.3772    1412.38903      -4.4544      -9.6236
   1427.99877      -3.2573     -11.3085    1412.37377      -4.5151      -9.5955
   1427.98352      -3.2185     -11.3410    1412.35852      -4.4828      -9.5611
   1427.96826      -3.2044     -11.3487    1412.34326      -4.4947      -9.6098
   1427.95300      -3.1985     -11.3228    1412.32800      -4.4647      -9.6082
   1427.93774      -3.2186     -11.2491    1412.31274      -4.4853      -9.6066
   1427.92248      -3.2309     -11.3644    1412.29748      -4.4956      -9.5982
   1427.90722      -3.1948     -11.2751    1412.28222      -4.4918      -9.6254
   1427.89196      -3.2125     -11.3250    1412.26696      -4.5093      -9.5147
   1427.87670      -3.2391     -11.2663    1412.25170      -4.4550      -9.4898
   1427.86145      -3.2040     -11.2858    1412.23645      -4.5019      -9.5516
   1427.84619      -3.1796     -11.2445    1412.22119      -4.4736      -9.5364
   1427.83093      -3.1802     -11.3373    1412.20593      -4.4916      -9.5822
   1427.81567      -3.2175     -11.2971    1412.19067      -4.4639      -9.5741
   1427.80041      -3.2039     -11.2784    1412.17541      -4.5058      -9.5062
   1427.78515      -3.1585     -11.2636    1412.16015      -4.4983      -9.5359
   1427.76989      -3.2113     -11.2479    1412.14489      -4.5106      -9.5528
   1427.75463      -3.1709     -11.2108    1412.12963      -4.5144      -9.5342
   1427.73937      -3.1853     -11.2459    1412.11437      -4.4495      -9.5357
   1427.72412      -3.1866     -11.1690    1412.09912      -4.5724      -9.4871
   1427.70886      -3.1611     -11.2054    1412.08386      -4.5322      -9.5114
   1427.69360      -3.1633     -11.1994    1412.06860      -4.5153      -9.5337
   1427.67834      -3.1774     -11.1612    1412.05334      -4.5544      -9.4950
   1427.66308      -3.1310     -11.1814    1412.03808      -4.5041      -9.6051
   1427.64782      -3.1174     -11.2167    1412.02282      -4.5407      -9.5093
   1427.63256      -3.1707     -11.1401    1412.00756      -4.5338      -9.5472
   1427.61730      -3.1412     -11.1476    1411.99230      -4.5255      -9.5108
   1427.60205      -3.1712     -11.1701    1411.97705      -4.5273      -9.5265
   1427.58679      -3.1453     -11.0928    1411.96179      -4.5242      -9.4960
   1427.57153      -3.1608     -11.1550    1411.94653      -4.5235      -9.5504
   1427.55627      -3.1512     -11.1721    1411.93127      -4.5425      -9.4767
   1427.54101      -3.1416     -11.1200    1411.91601      -4.5318      -9.5107
   1427.52575      -3.1144     -11.0894    1411.90075      -4.5473      -9.4876
   1427.51049      -3.1651     -11.1545    1411.88549      -4.5676      -9.5455
   1427.49523      -3.1244     -11.0791    1411.87023      -4.5146      -9.5111
   1427.47998      -3.1235     -11.0771    1411.85498      -4.5558      -9.5555
   1427.46472      -3.1609     -11.0253    1411.83972      -4.5260      -9.5151
   1427.44946      -3.1222     -11.0748    1411.82446      -4.5123      -9.4953
   1427.43420      -3.1050     -11.0358    1411.80920      -4.5698      -9.4722
   1427.41894      -3.1143     -11.0410    1411.79394      -4.5379      -9.4724
   1427.40368      -3.1179     -10.9927    1411.77868      -4.5171      -9.4946
   1427.38842      -3.1135     -11.0453    1411.76342      -4.5391      -9.4495
   1427.37316      -3.1366     -11.0738    1411.74816      -4.5308      -9.4677
   1427.35791      -3.1377     -10.9871    1411.73291      -4.5545      -9.4787
   1427.34265      -3.1218     -10.9884    1411.71765      -4.5072      -9.4958
   1427.32739      -3.0998     -10.9741    1411.70239      -4.5461      -9.4610
   1427.31213      -3.1741     -10.9774    1411.68713      -4.5065      -9.5232
   1427.29687      -3.1343     -11.0437    1411.67187      -4.5295      -9.4991
   1427.28161      -3.1210     -10.9233    1411.65661      -4.4966      -9.4858
   1427.26635      -3.1789     -10.9674    1411.64135      -4.4991      -9.4922
   1427.25109      -3.1410     -10.9524    1411.62609      -4.5144      -9.4745
   1427.23583      -3.1231     -10.9337    1411.61083      -4.4879      -9.4223
   1427.22058      -3.1006     -10.9334    1411.59558      -4.5066      -9.4345
   1427.20532      -3.1285     -10.8761    1411.58032      -4.5686      -9.4453
   1427.19006      -3.1245     -10.8552    1411.56506      -4.4953      -9.4046
   1427.17480      -3.1163     -10.8844    1411.54980      -4.5193      -9.4456
   1427.15954      -3.1247     -10.9094    1411.53454      -4.5553      -9.3864
   1427.14428      -3.0801     -10.8471    1411.51928      -4.5161      -9.4786
   1427.12902      -3.1227     -10.8413    1411.50402      -4.5415      -9.4427
   1427.11376      -3.1180     -10.8514    1411.48876      -4.5142      -9.4363
   1427.09851      -3.0646     -10.8399    1411.47351      -4.5468      -9.4015
   1427.08325      -3.0906     -10.8059    1411.45825      -4.4763      -9.4404
   1427.06799      -3.1399     -10.7786    1411.44299      -4.5264      -9.3501
   1427.05273      -3.0917     -10.7617    1411.42773      -4.5064      -9.4183
   1427.03747      -3.1259     -10.7763    1411.41247      -4.4606      -9.4057
   1427.02221      -3.1046     -10.7068    1411.39721      -4.5253      -9.4237
   1427.00695      -3.0856     -10.7395    1411.38195      -4.5501      -9.4374
   1426.99169      -3.1084     -10.7715    1411.36669      -4.5152      -9.4414
   1426.97644      -3.1079     -10.7424    1411.35144      -4.5847      -9.4235
   1426.96118      -3.1383     -10.7510    1411.33618      -4.5213      -9.3422
   1426.94592      -3.0952     -10.6767    1411.32092      -4.4671      -9.3744
   1426.93066      -3.1019     -10.7657    1411.30566      -4.4995      -9.3520
   1426.91540      -3.1375     -10.7466    1411.29040      -4.5049      -9.3621
   1426.90014      -3.0796     -10.6871    1411.27514      -4.4639      -9.3675
   1426.88488      -3.1388     -10.6593    1411.25988      -4.5125      -9.4157
   1426.86962      -3.0904     -10.6648    1411.24462      -4.5498      -9.3694
   1426.85437      -3.1106     -10.5587    1411.22937      -4.4806      -9.3511
   1426.83911      -3.1022     -10.6025    1411.21411      -4.4764      -9.3969
   1426.82385      -3.0697     -10.6714    1411.19885      -4.5001      -9.3183
   1426.80859      -3.1116     -10.6789    1411.18359      -4.5031      -9.3315
   1426.79333      -3.1434     -10.5754    1411.16833      -4.5512      -9.3600
   1426.77807      -3.0878     -10.6327    1411.15307      -4.5419      -9.3371
   1426.76281      -3.1200     -10.6038    1411.13781      -4.5286      -9.3380
   1426.74755      -3.1084     -10.5070    1411.12255      -4.5394      -9.3566
   1426.73229      -3.0851     -10.5758    1411.10729      -4.5099      -9.3643
   1426.71704      -3.1135     -10.6291    1411.09204      -4.4745      -9.3558
   1426.70178      -3.1043     -10.5200    1411.07678      -4.5032      -9.2967
   1426.68652      -3.1636     -10.4946    1411.06152      -4.5447      -9.3777
   1426.67126      -3.1137     -10.5064    1411.04626      -4.5113      -9.3162
   1426.65600      -3.1437     -10.5177    1411.03100      -4.5139      -9.3394
   1426.64074      -3.0982     -10.5019    1411.01574      -4.5114      -9.2979
   1426.62548      -3.1198     -10.4438    1411.00048      -4.5061      -9.3051
   1426.61022      -3.1420     -10.2308    1410.98522      -4.4754      -9.3341
   1426.59497      -3.1413     -10.2236    1410.96997      -4.5105      -9.3087
   1426.57971      -3.0955     -10.4416    1410.95471      -4.4900      -9.2976
   1426.56445      -3.0988     -10.4379    1410.93945      -4.5046      -9.2674
   1426.54919      -3.1322     -10.3884    1410.92419      -4.4716      -9.2859
   1426.53393      -3.1070     -10.4119    1410.90893      -4.4482      -9.2864
   1426.51867      -3.0870     -10.4382    1410.89367      -4.4952      -9.2763
   1426.50341      -3.1032     -10.4499    1410.87841      -4.4665      -9.2453
   1426.48815      -3.0914     -10.4070    1410.86315      -4.4810      -9.2910
   1426.47290      -3.0730     -10.3381    1410.84790      -4.4658      -9.2379
   1426.45764      -3.0945     -10.3846    1410.83264      -4.4598      -9.2220
   1426.44238      -3.1082     -10.3371    1410.81738      -4.4237      -9.2498
   1426.42712      -3.1200     -10.3336    1410.80212      -4.4329      -9.2197
   1426.41186      -3.1006     -10.3814    1410.78686      -4.4672      -9.2621
   1426.39660      -3.1310     -10.2578    1410.77160      -4.4686      -9.2508
   1426.38134      -3.1246     -10.3010    1410.75634      -4.4704      -9.2332
   1426.36608      -3.1600     -10.2706    1410.74108      -4.4818      -9.2370
   1426.35083      -3.1402     -10.2508    1410.72583      -4.4394      -9.1909
   1426.33557      -3.1438     -10.2682    1410.71057      -4.4776      -9.2180
   1426.32031      -3.1040     -10.2936    1410.69531      -4.4932      -9.2560
   1426.30505      -3.1515     -10.2081    1410.68005      -4.4501      -9.2067
   1426.28979      -3.1071     -10.2033    1410.66479      -4.4398      -9.1930
   1426.27453      -3.1369     -10.2243    1410.64953      -4.4454      -9.1939
   1426.25927      -3.1113     -10.2161    1410.63427      -4.4462      -9.2046
   1426.24401      -3.1226     -10.1654    1410.61901      -4.4432      -9.2240
   1426.22875      -3.1420     -10.1384    1410.60375      -4.4423      -9.1986
   1426.21350      -3.1597     -10.1582    1410.58850      -4.4003      -9.2264
   1426.19824      -3.1059     -10.1611    1410.57324      -4.4668      -9.1504
   1426.18298      -3.0733     -10.1841    1410.55798      -4.4505      -9.2375
   1426.16772      -3.1439     -10.1274    1410.54272      -4.4148      -9.1508
   1426.15246      -3.1175     -10.1192    1410.52746      -4.4024      -9.1661
   1426.13720      -3.1541     -10.1096    1410.51220      -4.4142      -9.1512
   1426.12194      -3.1936     -10.1425    1410.49694      -4.4063      -9.1965
   1426.10668      -3.1548     -10.1278    1410.48168      -4.3865      -9.1471
   1426.09143      -3.1175     -10.0509    1410.46643      -4.4064      -9.1056
   1426.07617      -3.0973     -10.0541    1410.45117      -4.3708      -9.1157
   1426.06091      -3.1255     -10.0216    1410.43591      -4.3976      -9.1369
   1426.04565      -3.1271     -10.0300    1410.42065      -4.4191      -9.1396
   1426.03039      -3.1425     -10.0819    1410.40539      -4.4262      -9.1292
   1426.01513      -3.1695     -10.0338    1410.39013      -4.4092      -9.0876
   1425.99987      -3.1398      -9.9526    1410.37487      -4.4233      -9.1525
   1425.98461      -3.1877      -9.9588    1410.35961      -4.4178      -9.0846
   1425.96936      -3.1293      -9.9717    1410.34436      -4.4022      -9.1115
   1425.95410      -3.1680      -9.9667    1410.32910      -4.3625      -9.1110
   1425.93884      -3.1378      -9.9606    1410.31384      -4.3651      -9.1537
   1425.92358      -3.1520      -9.9308    1410.29858      -4.3407      -9.1093
   1425.90832      -3.1379      -9.9396    1410.28332      -4.4235      -9.0406
   1425.89306      -3.1676      -9.9490    1410.26806      -4.3304      -9.0455
   1425.87780      -3.1455      -9.9162    1410.25280      -4.3743      -9.0594
   1425.86254      -3.1931      -9.8882    1410.23754      -4.3414      -9.0970
   1425.84729      -3.1389      -9.8417    1410.22229      -4.3423      -9.0611
   1425.83203      -3.1493      -9.9104    1410.20703      -4.3960      -9.0584
   1425.81677      -3.1415      -9.8764    1410.19177      -4.3764      -9.0097
   1425.80151      -3.1407      -9.8253    1410.17651      -4.3274      -8.9983
   1425.78625      -3.1643      -9.8264    1410.16125      -4.3283      -9.0447
   1425.77099      -3.0901      -9.7992    1410.14599      -4.3311      -8.9872
   1425.75573      -3.1273      -9.8044    1410.13073      -4.3133      -9.0112
   1425.74047      -3.1275      -9.8264    1410.11547      -4.3376      -9.0366
   1425.72521      -3.1011      -9.8047    1410.10021      -4.3181      -8.9951
   1425.70996      -3.1944      -9.7688    1410.08496      -4.3261      -8.9558
   1425.69470      -3.1368      -9.7443    1410.06970      -4.3474      -9.0042
   1425.67944      -3.1356      -9.7335    1410.05444      -4.3122      -9.0423
   1425.66418      -3.1606      -9.7394    1410.03918      -4.3211      -8.9825
   1425.64892      -3.1419      -9.7258    1410.02392      -4.2907      -8.9855
   1425.63366      -3.1505      -9.7942    1410.00866      -4.2843      -8.9796
   1425.61840      -3.1432      -9.7294    1409.99340      -4.3130      -8.9815
   1425.60314      -3.1319      -9.6998    1409.97814      -4.2431      -8.9281
   1425.58789      -3.1220      -9.7308    1409.96289      -4.2929      -8.9483
   1425.57263      -3.0822      -9.6396    1409.94763      -4.2668      -8.9442
   1425.55737      -3.1343      -9.6130    1409.93237      -4.2555      -8.9305
   1425.54211      -3.1208      -9.6881    1409.91711      -4.0474      -8.4761
   1425.52685      -3.1497      -9.6730    1409.90185      -4.2773      -9.0587
   1425.51159      -3.1344      -9.6407    1409.88659      -4.2423      -9.0586
   1425.49633      -3.1735      -9.6301    1409.87133      -4.2829      -8.9999
