#     FILENAME=Skynet_59284_M31_30kpc_MBilakhia_52429_1403.A.onoff.cal.txt
#     BASENAME=Skynet_59284_M31_30kpc_MBilakhia_52429_1403
#      CONTROL=SKYNET
#     PROJCODE=Skynet_59284_M31_30kpc_MBilakhia_52429
#     DATAROOT=/raid/scratch/cyborg/SkynetData
#      DATADIR=/raid/scratch/cyborg
#     DATADIR2=/raid/scratch/cyborg/SkynetData/Skynet_59284_M31_30kpc_MBilakhi
#     SCANNAME=2019_06_26_10
#     SRC_NAME=M31_30kpc_MBilakhia
#     OBSERVER=unioncollege_21317
#     DATE_OBS=2021-03-11T12:25:02.260
#        OBSID=52429
#      SCANNUM=1403
#          MJD=59284.5173873
#          UTC=44702
#     SCANTYPE=onoff
#     DATAMODE=HIRES
#     RECEIVER=Rx1_2
#      OBSFREQ=1395.0000
# Actual_FREQ1=1420.4000,
# Actual_FREQ2=1420.4000
#    LO1Tuning=6870.4000
#     RFFILTER=1355_1435
#        OBSBW=-15.6250
#     EFFBANDW=15.6250
#        NCHAN=1024
#    STARTCHAN=51
#     STOPCHAN=972
#         TINT=0.3000
#         TBIN=0.00419430
#       ACCLEN=2048 
#     DURATION=245.10
#     EXPOSURE=187.47
#        FOCUS=37.071
#       RA,DEC=00:35:51.49, 39:31:57.47
#      RA(deg)=7.60335
#     DEC(deg)=39.53248
#   WIDTH(deg)=2.0955x0.0338
#    AZIM(deg)=55.8211
#    ELEV(deg)=22.2405
#     COORDREF=RA_DEC_
#         HREF=8.8950
#         VREF=39.5326
#      RADESYS=FK5
#       OFFSYS=RADEC
#      EQUINOX=2000.00
#     IFATTENS=21.00, 15.00
#   BALANCELEV=1.200 
#   POWER_XLYR=[1.23, 1.22] 
#       VELDEF=RADI-OBS 
#     VELOCITY=0.000 
#         NPOL=2 
#      POLMODE=Linear 
#      POLTYPE=XXYY 
#      WARNING=None 
#     NOISECAL=HI 
#       PRECAL=2 
#      POSTCAL=2 
#     CRYOTEMP=15 
#      BOXTEMP=26 
#         TSYS=XX1:35.61, YY1:42.81
#         TSYS=XX2:35.61, YY2:42.83
#         TCAL=XX1:9.17, YY1:10.07
#         TCAL=XX2:9.17, YY2:10.07
# Calibrated spectra: Tsys*(ON-OFF)/OFF 
#                
#                
#Freq1(MHz)         XX1          YY1   Freq2(MHz)       XX2         YY2 
   1427.43430       1.0208       0.3830    1427.43430       1.0207       0.3831
   1427.41904       0.9744       0.5272    1427.41904       0.9743       0.5274
   1427.40378       1.0331       0.5121    1427.40378       1.0330       0.5124
   1427.38853       1.0304       0.4958    1427.38853       1.0303       0.4960
   1427.37327       0.9016       0.3850    1427.37327       0.9015       0.3852
   1427.35801       0.9900       0.4108    1427.35801       0.9899       0.4109
   1427.34275       1.0327       0.3655    1427.34275       1.0326       0.3656
   1427.32749       1.0397       0.4617    1427.32749       1.0396       0.4619
   1427.31223       1.0051       0.4069    1427.31223       1.0050       0.4071
   1427.29697       1.0213       0.4694    1427.29697       1.0212       0.4696
   1427.28171       0.9783       0.3962    1427.28171       0.9782       0.3964
   1427.26646       1.0238       0.4467    1427.26646       1.0237       0.4469
   1427.25120       0.9987       0.5116    1427.25120       0.9986       0.5119
   1427.23594       0.9489       0.4910    1427.23594       0.9488       0.4912
   1427.22068       1.0537       0.4077    1427.22068       1.0536       0.4079
   1427.20542       0.9880       0.4909    1427.20542       0.9879       0.4911
   1427.19016       1.0185       0.4816    1427.19016       1.0184       0.4818
   1427.17490       0.9919       0.4637    1427.17490       0.9918       0.4639
   1427.15964       0.9530       0.3825    1427.15964       0.9529       0.3827
   1427.14438       0.9958       0.4299    1427.14438       0.9957       0.4301
   1427.12913       0.9627       0.3940    1427.12913       0.9626       0.3942
   1427.11387       0.9863       0.4592    1427.11387       0.9862       0.4594
   1427.09861       1.0239       0.3538    1427.09861       1.0237       0.3539
   1427.08335       0.9071       0.3834    1427.08335       0.9070       0.3835
   1427.06809       0.9927       0.3783    1427.06809       0.9926       0.3785
   1427.05283       0.9698       0.4017    1427.05283       0.9697       0.4019
   1427.03757       1.0232       0.4328    1427.03757       1.0231       0.4330
   1427.02231       0.9821       0.4220    1427.02231       0.9820       0.4222
   1427.00706       0.9405       0.3668    1427.00706       0.9404       0.3670
   1426.99180       0.9689       0.5261    1426.99180       0.9688       0.5264
   1426.97654       1.0101       0.3963    1426.97654       1.0100       0.3964
   1426.96128       0.8897       0.3474    1426.96128       0.8896       0.3475
   1426.94602       0.9618       0.4670    1426.94602       0.9617       0.4673
   1426.93076       0.9337       0.3659    1426.93076       0.9336       0.3661
   1426.91550       1.0173       0.4422    1426.91550       1.0172       0.4424
   1426.90024       0.9867       0.3850    1426.90024       0.9866       0.3852
   1426.88499       0.9986       0.4319    1426.88499       0.9985       0.4321
   1426.86973       0.9708       0.4340    1426.86973       0.9707       0.4342
   1426.85447       0.9080       0.3890    1426.85447       0.9079       0.3892
   1426.83921       0.9333       0.4122    1426.83921       0.9332       0.4124
   1426.82395       0.9889       0.3850    1426.82395       0.9888       0.3852
   1426.80869       0.9195       0.4570    1426.80869       0.9194       0.4572
   1426.79343       0.9533       0.5110    1426.79343       0.9532       0.5113
   1426.77817       0.9906       0.3709    1426.77817       0.9905       0.3710
   1426.76292       0.9517       0.4063    1426.76292       0.9516       0.4065
   1426.74766       1.0170       0.3195    1426.74766       1.0169       0.3196
   1426.73240       0.9233       0.3699    1426.73240       0.9232       0.3701
   1426.71714       0.9109       0.3472    1426.71714       0.9108       0.3473
   1426.70188       0.9341       0.4077    1426.70188       0.9340       0.4079
   1426.68662       0.9564       0.4265    1426.68662       0.9563       0.4267
   1426.67136       0.9358       0.3809    1426.67136       0.9357       0.3811
   1426.65610       0.9201       0.4070    1426.65610       0.9200       0.4071
   1426.64084       0.9370       0.4158    1426.64084       0.9369       0.4160
   1426.62559       0.8123       0.4567    1426.62559       0.8122       0.4569
   1426.61033       0.8637       0.3724    1426.61033       0.8636       0.3726
   1426.59507       0.9323       0.3930    1426.59507       0.9322       0.3932
   1426.57981       0.9134       0.4387    1426.57981       0.9133       0.4389
   1426.56455       0.8982       0.4911    1426.56455       0.8981       0.4913
   1426.54929       0.8853       0.4424    1426.54929       0.8852       0.4426
   1426.53403       0.8735       0.2979    1426.53403       0.8734       0.2980
   1426.51877       0.8693       0.4267    1426.51877       0.8692       0.4269
   1426.50352       0.9514       0.4441    1426.50352       0.9513       0.4443
   1426.48826       0.8298       0.3646    1426.48826       0.8297       0.3647
   1426.47300       0.8374       0.3790    1426.47300       0.8373       0.3792
   1426.45774       0.9057       0.4241    1426.45774       0.9056       0.4243
   1426.44248       0.8644       0.3876    1426.44248       0.8643       0.3878
   1426.42722       0.8745       0.3777    1426.42722       0.8744       0.3778
   1426.41196       0.9175       0.4609    1426.41196       0.9174       0.4611
   1426.39670       0.9001       0.3407    1426.39670       0.9000       0.3409
   1426.38145       0.8310       0.4281    1426.38145       0.8309       0.4283
   1426.36619       0.8105       0.5061    1426.36619       0.8104       0.5063
   1426.35093       0.8160       0.4058    1426.35093       0.8159       0.4059
   1426.33567       0.9069       0.4401    1426.33567       0.9068       0.4403
   1426.32041       0.8030       0.4021    1426.32041       0.8029       0.4023
   1426.30515       0.7778       0.4059    1426.30515       0.7777       0.4061
   1426.28989       0.8094       0.5086    1426.28989       0.8093       0.5088
   1426.27463       0.8604       0.4396    1426.27463       0.8604       0.4398
   1426.25937       0.8238       0.4225    1426.25937       0.8237       0.4227
   1426.24412       0.7120       0.4157    1426.24412       0.7119       0.4159
   1426.22886       0.7435       0.4589    1426.22886       0.7434       0.4591
   1426.21360       0.8178       0.4267    1426.21360       0.8177       0.4269
   1426.19834       0.7684       0.4453    1426.19834       0.7683       0.4455
   1426.18308       0.8031       0.5463    1426.18308       0.8030       0.5465
   1426.16782       0.8147       0.3994    1426.16782       0.8147       0.3996
   1426.15256       0.7905       0.4885    1426.15256       0.7904       0.4887
   1426.13730       0.8341       0.4956    1426.13730       0.8340       0.4958
   1426.12205       0.6793       0.4861    1426.12205       0.6793       0.4863
   1426.10679       0.8006       0.4696    1426.10679       0.8005       0.4698
   1426.09153       0.7850       0.4662    1426.09153       0.7849       0.4664
   1426.07627       0.7688       0.4351    1426.07627       0.7687       0.4353
   1426.06101       0.7691       0.5213    1426.06101       0.7691       0.5215
   1426.04575       0.7198       0.4791    1426.04575       0.7198       0.4793
   1426.03049       0.8152       0.4510    1426.03049       0.8151       0.4512
   1426.01523       0.7571       0.4737    1426.01523       0.7570       0.4739
   1425.99998       0.7812       0.4636    1425.99998       0.7811       0.4638
   1425.98472       0.7611       0.4988    1425.98472       0.7610       0.4990
   1425.96946       0.7389       0.5574    1425.96946       0.7388       0.5576
   1425.95420       0.7042       0.4241    1425.95420       0.7041       0.4243
   1425.93894       0.7535       0.5264    1425.93894       0.7534       0.5266
   1425.92368       0.7175       0.5651    1425.92368       0.7174       0.5654
   1425.90842       0.7032       0.4673    1425.90842       0.7031       0.4675
   1425.89316       0.7264       0.5228    1425.89316       0.7264       0.5230
   1425.87791       0.7294       0.4956    1425.87791       0.7293       0.4958
   1425.86265       0.7139       0.4623    1425.86265       0.7138       0.4625
   1425.84739       0.7013       0.5012    1425.84739       0.7013       0.5014
   1425.83213       0.7295       0.5396    1425.83213       0.7294       0.5399
   1425.81687       0.6102       0.4405    1425.81687       0.6101       0.4407
   1425.80161       0.6792       0.4300    1425.80161       0.6791       0.4302
   1425.78635       0.6588       0.5188    1425.78635       0.6588       0.5190
   1425.77109       0.6359       0.5513    1425.77109       0.6358       0.5516
   1425.75583       0.6504       0.5459    1425.75583       0.6503       0.5461
   1425.74058       0.6875       0.5269    1425.74058       0.6875       0.5271
   1425.72532       0.6713       0.4877    1425.72532       0.6712       0.4879
   1425.71006       0.7052       0.4877    1425.71006       0.7051       0.4880
   1425.69480       0.5874       0.4407    1425.69480       0.5873       0.4409
   1425.67954       0.6229       0.5206    1425.67954       0.6229       0.5208
   1425.66428       0.6797       0.5040    1425.66428       0.6797       0.5043
   1425.64902       0.6695       0.5180    1425.64902       0.6695       0.5182
   1425.63376       0.7127       0.5089    1425.63376       0.7126       0.5091
   1425.61851       0.6355       0.5236    1425.61851       0.6354       0.5239
   1425.60325       0.6318       0.5468    1425.60325       0.6317       0.5471
   1425.58799       0.5833       0.6452    1425.58799       0.5832       0.6455
   1425.57273       0.6570       0.5709    1425.57273       0.6569       0.5711
   1425.55747       0.5048       0.4894    1425.55747       0.5048       0.4896
   1425.54221       0.6111       0.5838    1425.54221       0.6111       0.5841
   1425.52695       0.6650       0.5995    1425.52695       0.6649       0.5997
   1425.51169       0.5411       0.5144    1425.51169       0.5411       0.5146
   1425.49644       0.5591       0.6583    1425.49644       0.5591       0.6586
   1425.48118       0.6450       0.5435    1425.48118       0.6449       0.5437
   1425.46592       0.6382       0.5819    1425.46592       0.6381       0.5821
   1425.45066       0.5049       0.5717    1425.45066       0.5048       0.5719
   1425.43540       0.5674       0.5880    1425.43540       0.5674       0.5883
   1425.42014       0.5960       0.5524    1425.42014       0.5960       0.5526
   1425.40488       0.5934       0.5440    1425.40488       0.5933       0.5442
   1425.38962       0.6018       0.6876    1425.38962       0.6018       0.6879
   1425.37437       0.5140       0.7366    1425.37437       0.5140       0.7369
   1425.35911       0.5107       0.5425    1425.35911       0.5107       0.5428
   1425.34385       0.6302       0.5708    1425.34385       0.6301       0.5711
   1425.32859       0.6348       0.5809    1425.32859       0.6347       0.5812
   1425.31333       0.5992       0.6321    1425.31333       0.5991       0.6324
   1425.29807       0.5662       0.5166    1425.29807       0.5661       0.5168
   1425.28281       0.5958       0.5954    1425.28281       0.5958       0.5957
   1425.26755       0.5662       0.5708    1425.26755       0.5661       0.5710
   1425.25229       0.5523       0.6334    1425.25229       0.5522       0.6337
   1425.23704       0.4709       0.6197    1425.23704       0.4709       0.6200
   1425.22178       0.4851       0.5484    1425.22178       0.4851       0.5486
   1425.20652       0.5290       0.7000    1425.20652       0.5289       0.7003
   1425.19126       0.4984       0.5995    1425.19126       0.4983       0.5997
   1425.17600       0.5016       0.5616    1425.17600       0.5016       0.5619
   1425.16074       0.5323       0.6284    1425.16074       0.5323       0.6287
   1425.14548       0.6035       0.6395    1425.14548       0.6034       0.6398
   1425.13022       0.5531       0.6115    1425.13022       0.5530       0.6118
   1425.11497       0.4727       0.6295    1425.11497       0.4727       0.6297
   1425.09971       0.4704       0.6437    1425.09971       0.4703       0.6440
   1425.08445       0.4180       0.5806    1425.08445       0.4179       0.5809
   1425.06919       0.4837       0.6425    1425.06919       0.4836       0.6427
   1425.05393       0.4642       0.6375    1425.05393       0.4642       0.6377
   1425.03867       0.4304       0.7242    1425.03867       0.4303       0.7245
   1425.02341       0.5070       0.6490    1425.02341       0.5070       0.6493
   1425.00815       0.4261       0.6050    1425.00815       0.4260       0.6053
   1424.99290       0.4301       0.6561    1424.99290       0.4300       0.6564
   1424.97764       0.4385       0.6922    1424.97764       0.4385       0.6925
   1424.96238       0.4237       0.8391    1424.96238       0.4236       0.8395
   1424.94712       0.4866       0.6160    1424.94712       0.4865       0.6163
   1424.93186       0.4554       0.6530    1424.93186       0.4554       0.6533
   1424.91660       0.4223       0.7319    1424.91660       0.4223       0.7322
   1424.90134       0.4478       0.7095    1424.90134       0.4477       0.7098
   1424.88608       0.4530       0.6986    1424.88608       0.4529       0.6989
   1424.87083       0.4726       0.6431    1424.87083       0.4725       0.6434
   1424.85557       0.4278       0.6678    1424.85557       0.4278       0.6681
   1424.84031       0.3797       0.7526    1424.84031       0.3797       0.7529
   1424.82505       0.3995       0.7159    1424.82505       0.3995       0.7162
   1424.80979       0.4018       0.6058    1424.80979       0.4017       0.6061
   1424.79453       0.4329       0.6737    1424.79453       0.4329       0.6740
   1424.77927       0.4257       0.7130    1424.77927       0.4257       0.7133
   1424.76401       0.4904       0.6754    1424.76401       0.4903       0.6757
   1424.74875       0.4458       0.7828    1424.74875       0.4458       0.7831
   1424.73350       0.3826       0.7508    1424.73350       0.3826       0.7511
   1424.71824       0.3680       0.8249    1424.71824       0.3679       0.8253
   1424.70298       0.4114       0.8237    1424.70298       0.4114       0.8241
   1424.68772       0.4158       0.7872    1424.68772       0.4158       0.7875
   1424.67246       0.3826       0.6943    1424.67246       0.3826       0.6946
   1424.65720       0.4085       0.6791    1424.65720       0.4085       0.6794
   1424.64194       0.3721       0.7031    1424.64194       0.3720       0.7035
   1424.62668       0.3532       0.7688    1424.62668       0.3532       0.7691
   1424.61143       0.3415       0.8191    1424.61143       0.3415       0.8195
   1424.59617       0.3164       0.7150    1424.59617       0.3163       0.7153
   1424.58091       0.3235       0.7084    1424.58091       0.3235       0.7087
   1424.56565       0.2952       0.7184    1424.56565       0.2951       0.7187
   1424.55039       0.3275       0.8108    1424.55039       0.3274       0.8112
   1424.53513       0.3819       0.8264    1424.53513       0.3818       0.8268
   1424.51987       0.3200       0.7377    1424.51987       0.3200       0.7381
   1424.50461       0.3633       0.7148    1424.50461       0.3633       0.7151
   1424.48936       0.3075       0.7918    1424.48936       0.3074       0.7921
   1424.47410       0.2954       0.7407    1424.47410       0.2953       0.7410
   1424.45884       0.2894       0.8131    1424.45884       0.2894       0.8135
   1424.44358       0.3497       0.8107    1424.44358       0.3497       0.8110
   1424.42832       0.2995       0.7380    1424.42832       0.2995       0.7383
   1424.41306       0.3134       0.7830    1424.41306       0.3134       0.7833
   1424.39780       0.3128       0.8107    1424.39780       0.3128       0.8110
   1424.38254       0.3014       0.8326    1424.38254       0.3014       0.8329
   1424.36729       0.3385       0.7752    1424.36729       0.3385       0.7756
   1424.35203       0.3369       0.7819    1424.35203       0.3368       0.7822
   1424.33677       0.3272       0.8065    1424.33677       0.3271       0.8068
   1424.32151       0.3436       0.9257    1424.32151       0.3436       0.9261
   1424.30625       0.3352       0.8854    1424.30625       0.3352       0.8858
   1424.29099       0.3033       0.8596    1424.29099       0.3033       0.8600
   1424.27573       0.2812       0.8568    1424.27573       0.2811       0.8571
   1424.26047       0.3066       0.8478    1424.26047       0.3066       0.8482
   1424.24521       0.3088       0.7775    1424.24521       0.3088       0.7778
   1424.22996       0.2323       0.8185    1424.22996       0.2323       0.8189
   1424.21470       0.2801       0.8484    1424.21470       0.2801       0.8487
   1424.19944       0.2509       0.8309    1424.19944       0.2509       0.8313
   1424.18418       0.3091       0.7729    1424.18418       0.3091       0.7733
   1424.16892       0.3203       0.7895    1424.16892       0.3202       0.7899
   1424.15366       0.2504       0.7882    1424.15366       0.2504       0.7885
   1424.13840       0.2588       0.8954    1424.13840       0.2588       0.8958
   1424.12314       0.2878       0.9213    1424.12314       0.2878       0.9217
   1424.10789       0.2549       0.9109    1424.10789       0.2549       0.9113
   1424.09263       0.2371       0.8464    1424.09263       0.2371       0.8467
   1424.07737       0.2176       0.9440    1424.07737       0.2176       0.9444
   1424.06211       0.2542       0.9520    1424.06211       0.2542       0.9525
   1424.04685       0.2310       0.8379    1424.04685       0.2309       0.8382
   1424.03159       0.1363       0.8715    1424.03159       0.1363       0.8719
   1424.01633       0.2956       0.9150    1424.01633       0.2956       0.9154
   1424.00107       0.2213       0.8822    1424.00107       0.2213       0.8826
