#     FILENAME=Skynet_59284_M31_10kpc_JWei_52425_1409.A.onoff.cal.txt
#     BASENAME=Skynet_59284_M31_10kpc_JWei_52425_1409
#      CONTROL=SKYNET
#     PROJCODE=Skynet_59284_M31_10kpc_JWei_52425
#     DATAROOT=/raid/scratch/cyborg/SkynetData
#      DATADIR=/raid/scratch/cyborg
#     DATADIR2=/raid/scratch/cyborg/SkynetData/Skynet_59284_M31_10kpc_JWei_524
#     SCANNAME=2019_06_26_10
#     SRC_NAME=M31_10kpc_JWei
#     OBSERVER=unioncollege_21317
#     DATE_OBS=2021-03-11T12:48:16.260
#        OBSID=52425
#      SCANNUM=1409
#          MJD=59284.5335215
#          UTC=46096
#     SCANTYPE=onoff
#     DATAMODE=HIRES
#     RECEIVER=Rx1_2
#      OBSFREQ=1395.0000
# Actual_FREQ1=1420.4000,
# Actual_FREQ2=1420.4000
#    LO1Tuning=6870.4000
#     RFFILTER=1355_1435
#        OBSBW=-15.6250
#     EFFBANDW=15.6250
#        NCHAN=1024
#    STARTCHAN=51
#     STOPCHAN=972
#         TINT=0.3000
#         TBIN=0.00419430
#       ACCLEN=2048 
#     DURATION=168.60
#     EXPOSURE=125.08
#        FOCUS=37.071
#       RA,DEC=00:40:37.47, 40:42:02.64
#      RA(deg)=8.77026
#     DEC(deg)=40.70096
#   WIDTH(deg)=2.0938x0.0261
#    AZIM(deg)=56.6482
#    ELEV(deg)=25.7771
#     COORDREF=RA_DEC_
#         HREF=10.0879
#         VREF=40.7011
#      RADESYS=FK5
#       OFFSYS=RADEC
#      EQUINOX=2000.00
#     IFATTENS=20.00, 14.00
#   BALANCELEV=1.200 
#   POWER_XLYR=[2.36, 1.29] 
#       VELDEF=RADI-OBS 
#     VELOCITY=0.000 
#         NPOL=2 
#      POLMODE=Linear 
#      POLTYPE=XXYY 
#      WARNING=None 
#     NOISECAL=HI 
#       PRECAL=2 
#      POSTCAL=2 
#     CRYOTEMP=15 
#      BOXTEMP=26 
#         TSYS=XX1:33.12, YY1:40.53
#         TSYS=XX2:33.12, YY2:40.52
#         TCAL=XX1:9.17, YY1:10.07
#         TCAL=XX2:9.17, YY2:10.07
# Calibrated spectra: Tsys*(ON-OFF)/OFF 
#                
#                
#Freq1(MHz)         XX1          YY1   Freq2(MHz)       XX2         YY2 
   1427.43430       0.7020       0.7804    1427.43430       0.7019       0.7802
   1427.41904       0.7106       0.7570    1427.41904       0.7106       0.7569
   1427.40378       0.6952       0.8739    1427.40378       0.6952       0.8737
   1427.38853       0.7214       0.8212    1427.38853       0.7213       0.8211
   1427.37327       0.7081       0.7421    1427.37327       0.7081       0.7419
   1427.35801       0.7537       0.7872    1427.35801       0.7537       0.7871
   1427.34275       0.7121       0.7151    1427.34275       0.7120       0.7149
   1427.32749       0.6878       0.6681    1427.32749       0.6877       0.6680
   1427.31223       0.6615       0.9013    1427.31223       0.6615       0.9011
   1427.29697       0.6800       0.8684    1427.29697       0.6800       0.8682
   1427.28171       0.7328       0.7451    1427.28171       0.7328       0.7450
   1427.26646       0.7192       0.7493    1427.26646       0.7192       0.7492
   1427.25120       0.6994       0.7003    1427.25120       0.6993       0.7002
   1427.23594       0.6533       0.7864    1427.23594       0.6533       0.7863
   1427.22068       0.7226       0.7181    1427.22068       0.7226       0.7180
   1427.20542       0.6534       0.7637    1427.20542       0.6534       0.7636
   1427.19016       0.7300       0.8273    1427.19016       0.7299       0.8271
   1427.17490       0.6532       0.8264    1427.17490       0.6532       0.8263
   1427.15964       0.7093       0.7529    1427.15964       0.7093       0.7528
   1427.14438       0.6590       0.7032    1427.14438       0.6590       0.7030
   1427.12913       0.7315       0.7098    1427.12913       0.7314       0.7097
   1427.11387       0.6128       0.8162    1427.11387       0.6128       0.8160
   1427.09861       0.5501       0.7870    1427.09861       0.5501       0.7869
   1427.08335       0.6556       0.8387    1427.08335       0.6556       0.8385
   1427.06809       0.7015       0.8298    1427.06809       0.7015       0.8296
   1427.05283       0.7097       0.8235    1427.05283       0.7097       0.8233
   1427.03757       0.7021       0.8474    1427.03757       0.7021       0.8473
   1427.02231       0.6394       0.8328    1427.02231       0.6394       0.8326
   1427.00706       0.6665       0.8041    1427.00706       0.6665       0.8040
   1426.99180       0.7559       0.8243    1426.99180       0.7559       0.8242
   1426.97654       0.6389       0.8825    1426.97654       0.6389       0.8823
   1426.96128       0.7500       0.7509    1426.96128       0.7500       0.7507
   1426.94602       0.6413       0.8410    1426.94602       0.6413       0.8409
   1426.93076       0.6447       0.8248    1426.93076       0.6447       0.8246
   1426.91550       0.7397       0.8407    1426.91550       0.7397       0.8405
   1426.90024       0.6152       0.8389    1426.90024       0.6152       0.8387
   1426.88499       0.6343       0.8146    1426.88499       0.6343       0.8145
   1426.86973       0.7098       0.8069    1426.86973       0.7098       0.8068
   1426.85447       0.6909       0.7781    1426.85447       0.6909       0.7780
   1426.83921       0.6906       0.9054    1426.83921       0.6906       0.9052
   1426.82395       0.7286       0.8536    1426.82395       0.7286       0.8534
   1426.80869       0.5783       0.8208    1426.80869       0.5782       0.8207
   1426.79343       0.6646       0.8345    1426.79343       0.6646       0.8343
   1426.77817       0.6972       0.8491    1426.77817       0.6971       0.8489
   1426.76292       0.7209       0.8503    1426.76292       0.7209       0.8501
   1426.74766       0.6811       0.9155    1426.74766       0.6810       0.9154
   1426.73240       0.6746       0.8703    1426.73240       0.6746       0.8702
   1426.71714       0.6113       0.7946    1426.71714       0.6113       0.7944
   1426.70188       0.6055       0.8124    1426.70188       0.6055       0.8123
   1426.68662       0.6994       0.7855    1426.68662       0.6993       0.7854
   1426.67136       0.5849       0.9076    1426.67136       0.5849       0.9074
   1426.65610       0.7546       0.9101    1426.65610       0.7546       0.9099
   1426.64084       0.6088       0.9039    1426.64084       0.6087       0.9037
   1426.62559       0.5649       0.7113    1426.62559       0.5649       0.7112
   1426.61033       0.6819       0.8405    1426.61033       0.6819       0.8404
   1426.59507       0.7141       0.8185    1426.59507       0.7141       0.8184
   1426.57981       0.7295       0.9093    1426.57981       0.7295       0.9091
   1426.56455       0.7145       0.8770    1426.56455       0.7145       0.8768
   1426.54929       0.6888       0.8001    1426.54929       0.6888       0.8000
   1426.53403       0.7042       0.7477    1426.53403       0.7042       0.7475
   1426.51877       0.6774       0.8188    1426.51877       0.6774       0.8186
   1426.50352       0.7483       0.7178    1426.50352       0.7483       0.7177
   1426.48826       0.7198       0.8256    1426.48826       0.7198       0.8255
   1426.47300       0.7003       0.7988    1426.47300       0.7003       0.7986
   1426.45774       0.7226       0.8375    1426.45774       0.7226       0.8374
   1426.44248       0.6860       0.8067    1426.44248       0.6860       0.8066
   1426.42722       0.6835       0.7304    1426.42722       0.6835       0.7303
   1426.41196       0.7106       0.9143    1426.41196       0.7106       0.9141
   1426.39670       0.7477       0.8437    1426.39670       0.7476       0.8436
   1426.38145       0.6564       0.8034    1426.38145       0.6564       0.8032
   1426.36619       0.6713       0.8729    1426.36619       0.6713       0.8727
   1426.35093       0.6945       0.8917    1426.35093       0.6944       0.8915
   1426.33567       0.6262       0.8582    1426.33567       0.6261       0.8580
   1426.32041       0.6145       0.7590    1426.32041       0.6145       0.7589
   1426.30515       0.7745       0.8553    1426.30515       0.7745       0.8551
   1426.28989       0.6461       0.8798    1426.28989       0.6461       0.8796
   1426.27463       0.7082       0.8926    1426.27463       0.7082       0.8925
   1426.25937       0.7542       0.9500    1426.25937       0.7542       0.9498
   1426.24412       0.7276       0.8889    1426.24412       0.7275       0.8887
   1426.22886       0.6570       0.8241    1426.22886       0.6570       0.8239
   1426.21360       0.7833       0.7915    1426.21360       0.7833       0.7913
   1426.19834       0.7832       0.7814    1426.19834       0.7832       0.7812
   1426.18308       0.7103       0.8201    1426.18308       0.7103       0.8199
   1426.16782       0.6991       0.8145    1426.16782       0.6991       0.8143
   1426.15256       0.7004       0.8492    1426.15256       0.7003       0.8491
   1426.13730       0.6632       0.7048    1426.13730       0.6632       0.7047
   1426.12205       0.7629       0.8500    1426.12205       0.7629       0.8498
   1426.10679       0.6976       0.7032    1426.10679       0.6976       0.7030
   1426.09153       0.7073       0.7992    1426.09153       0.7073       0.7990
   1426.07627       0.6758       0.7721    1426.07627       0.6758       0.7719
   1426.06101       0.7112       0.7712    1426.06101       0.7111       0.7711
   1426.04575       0.7262       0.8011    1426.04575       0.7262       0.8010
   1426.03049       0.6846       0.9039    1426.03049       0.6846       0.9037
   1426.01523       0.7455       0.6703    1426.01523       0.7454       0.6701
   1425.99998       0.8191       0.7844    1425.99998       0.8191       0.7843
   1425.98472       0.7934       0.8296    1425.98472       0.7934       0.8295
   1425.96946       0.8118       0.9088    1425.96946       0.8118       0.9086
   1425.95420       0.6978       0.7585    1425.95420       0.6978       0.7584
   1425.93894       0.7493       0.7913    1425.93894       0.7493       0.7911
   1425.92368       0.6886       0.8423    1425.92368       0.6886       0.8421
   1425.90842       0.6843       0.8062    1425.90842       0.6842       0.8060
   1425.89316       0.7763       0.7751    1425.89316       0.7763       0.7750
   1425.87791       0.7203       0.7580    1425.87791       0.7203       0.7579
   1425.86265       0.7310       0.8528    1425.86265       0.7310       0.8526
   1425.84739       0.6707       0.7757    1425.84739       0.6707       0.7756
   1425.83213       0.6974       0.7773    1425.83213       0.6973       0.7772
   1425.81687       0.6009       0.6840    1425.81687       0.6009       0.6839
   1425.80161       0.6734       0.7223    1425.80161       0.6734       0.7221
   1425.78635       0.7411       0.7362    1425.78635       0.7411       0.7361
   1425.77109       0.7764       0.7749    1425.77109       0.7764       0.7747
   1425.75583       0.7910       0.8091    1425.75583       0.7910       0.8090
   1425.74058       0.7134       0.7414    1425.74058       0.7134       0.7412
   1425.72532       0.7677       0.7653    1425.72532       0.7677       0.7652
   1425.71006       0.8227       0.7785    1425.71006       0.8227       0.7783
   1425.69480       0.6549       0.7143    1425.69480       0.6549       0.7142
   1425.67954       0.7347       0.7994    1425.67954       0.7346       0.7992
   1425.66428       0.6782       0.7110    1425.66428       0.6781       0.7109
   1425.64902       0.6929       0.6673    1425.64902       0.6929       0.6671
   1425.63376       0.7864       0.7238    1425.63376       0.7863       0.7237
   1425.61851       0.8335       0.7964    1425.61851       0.8334       0.7962
   1425.60325       0.7549       0.7119    1425.60325       0.7548       0.7118
   1425.58799       0.7451       0.7967    1425.58799       0.7451       0.7965
   1425.57273       0.8615       0.7250    1425.57273       0.8614       0.7249
   1425.55747       0.7771       0.7122    1425.55747       0.7770       0.7121
   1425.54221       0.7020       0.7701    1425.54221       0.7020       0.7700
   1425.52695       0.7249       0.6811    1425.52695       0.7249       0.6810
   1425.51169       0.6910       0.7391    1425.51169       0.6909       0.7389
   1425.49644       0.6954       0.7569    1425.49644       0.6954       0.7568
   1425.48118       0.7289       0.7056    1425.48118       0.7289       0.7055
   1425.46592       0.7956       0.7561    1425.46592       0.7956       0.7559
   1425.45066       0.7406       0.8366    1425.45066       0.7406       0.8364
   1425.43540       0.7339       0.7177    1425.43540       0.7338       0.7176
   1425.42014       0.7980       0.8590    1425.42014       0.7980       0.8588
   1425.40488       0.7640       0.7547    1425.40488       0.7640       0.7546
   1425.38962       0.7746       0.7506    1425.38962       0.7745       0.7505
   1425.37437       0.7114       0.8094    1425.37437       0.7114       0.8092
   1425.35911       0.7353       0.6120    1425.35911       0.7353       0.6119
   1425.34385       0.7870       0.7273    1425.34385       0.7870       0.7271
   1425.32859       0.6710       0.7005    1425.32859       0.6710       0.7003
   1425.31333       0.7584       0.5851    1425.31333       0.7584       0.5850
   1425.29807       0.7106       0.5884    1425.29807       0.7106       0.5883
   1425.28281       0.7106       0.6392    1425.28281       0.7106       0.6391
   1425.26755       0.7226       0.7245    1425.26755       0.7226       0.7244
   1425.25229       0.7412       0.6816    1425.25229       0.7411       0.6815
   1425.23704       0.7904       0.6462    1425.23704       0.7904       0.6461
   1425.22178       0.6990       0.5820    1425.22178       0.6990       0.5819
   1425.20652       0.7633       0.6233    1425.20652       0.7632       0.6232
   1425.19126       0.8352       0.6486    1425.19126       0.8351       0.6485
   1425.17600       0.8085       0.6681    1425.17600       0.8085       0.6679
   1425.16074       0.7599       0.6266    1425.16074       0.7598       0.6264
   1425.14548       0.7368       0.6164    1425.14548       0.7368       0.6163
   1425.13022       0.6837       0.6050    1425.13022       0.6837       0.6049
   1425.11497       0.7773       0.7461    1425.11497       0.7772       0.7460
   1425.09971       0.8341       0.6444    1425.09971       0.8340       0.6443
   1425.08445       0.8337       0.5553    1425.08445       0.8336       0.5551
   1425.06919       0.7365       0.6389    1425.06919       0.7365       0.6388
   1425.05393       0.7547       0.6870    1425.05393       0.7546       0.6869
   1425.03867       0.7384       0.6619    1425.03867       0.7384       0.6618
   1425.02341       0.8168       0.5433    1425.02341       0.8168       0.5432
   1425.00815       0.8205       0.6212    1425.00815       0.8205       0.6211
   1424.99290       0.7748       0.5049    1424.99290       0.7747       0.5048
   1424.97764       0.8432       0.5845    1424.97764       0.8431       0.5844
   1424.96238       0.7646       0.5936    1424.96238       0.7646       0.5934
   1424.94712       0.8085       0.6473    1424.94712       0.8085       0.6472
   1424.93186       0.8161       0.7138    1424.93186       0.8161       0.7136
   1424.91660       0.7612       0.5594    1424.91660       0.7611       0.5593
   1424.90134       0.8064       0.5792    1424.90134       0.8063       0.5791
   1424.88608       0.7727       0.6171    1424.88608       0.7727       0.6170
   1424.87083       0.7422       0.6084    1424.87083       0.7422       0.6083
   1424.85557       0.7713       0.6372    1424.85557       0.7712       0.6371
   1424.84031       0.8317       0.5237    1424.84031       0.8317       0.5236
   1424.82505       0.8252       0.5680    1424.82505       0.8252       0.5679
   1424.80979       0.7932       0.5168    1424.80979       0.7931       0.5167
   1424.79453       0.7653       0.6182    1424.79453       0.7653       0.6181
   1424.77927       0.7830       0.5647    1424.77927       0.7829       0.5646
   1424.76401       0.7762       0.6050    1424.76401       0.7762       0.6049
   1424.74875       0.8401       0.6171    1424.74875       0.8401       0.6169
   1424.73350       0.7776       0.5541    1424.73350       0.7776       0.5540
   1424.71824       0.7869       0.5270    1424.71824       0.7869       0.5269
   1424.70298       0.8379       0.5594    1424.70298       0.8379       0.5593
   1424.68772       0.8538       0.6349    1424.68772       0.8538       0.6348
   1424.67246       0.8294       0.5304    1424.67246       0.8294       0.5303
   1424.65720       0.8800       0.5918    1424.65720       0.8800       0.5917
   1424.64194       0.7983       0.5026    1424.64194       0.7983       0.5025
   1424.62668       0.7862       0.5404    1424.62668       0.7862       0.5403
   1424.61143       0.8925       0.5232    1424.61143       0.8925       0.5231
   1424.59617       0.8856       0.4716    1424.59617       0.8855       0.4715
   1424.58091       0.8617       0.6179    1424.58091       0.8616       0.6177
   1424.56565       0.8739       0.5150    1424.56565       0.8739       0.5149
   1424.55039       0.8352       0.4643    1424.55039       0.8351       0.4642
   1424.53513       0.8615       0.5029    1424.53513       0.8614       0.5028
   1424.51987       0.8320       0.4942    1424.51987       0.8320       0.4941
   1424.50461       0.8872       0.5374    1424.50461       0.8872       0.5373
   1424.48936       0.8918       0.5077    1424.48936       0.8918       0.5076
   1424.47410       0.9012       0.5902    1424.47410       0.9011       0.5901
   1424.45884       0.8456       0.4728    1424.45884       0.8456       0.4727
   1424.44358       0.7889       0.5707    1424.44358       0.7889       0.5706
   1424.42832       0.8284       0.5328    1424.42832       0.8283       0.5327
   1424.41306       0.8177       0.5061    1424.41306       0.8177       0.5060
   1424.39780       0.9161       0.5893    1424.39780       0.9160       0.5892
   1424.38254       0.9070       0.5674    1424.38254       0.9070       0.5673
   1424.36729       0.8878       0.5519    1424.36729       0.8878       0.5518
   1424.35203       0.8596       0.5447    1424.35203       0.8596       0.5445
   1424.33677       0.8890       0.5462    1424.33677       0.8889       0.5461
   1424.32151       0.8960       0.4963    1424.32151       0.8960       0.4962
   1424.30625       0.8346       0.5503    1424.30625       0.8346       0.5502
   1424.29099       0.8506       0.5103    1424.29099       0.8505       0.5102
   1424.27573       0.8901       0.4550    1424.27573       0.8900       0.4549
   1424.26047       0.9272       0.4788    1424.26047       0.9271       0.4787
   1424.24521       0.9123       0.5169    1424.24521       0.9123       0.5168
   1424.22996       0.8962       0.5877    1424.22996       0.8962       0.5875
   1424.21470       0.9290       0.5321    1424.21470       0.9290       0.5320
   1424.19944       0.8552       0.5747    1424.19944       0.8552       0.5746
   1424.18418       0.8771       0.5809    1424.18418       0.8770       0.5808
   1424.16892       0.9439       0.5848    1424.16892       0.9439       0.5847
   1424.15366       0.8936       0.4364    1424.15366       0.8936       0.4363
   1424.13840       0.9062       0.5420    1424.13840       0.9062       0.5419
   1424.12314       0.9382       0.5734    1424.12314       0.9381       0.5733
   1424.10789       0.9464       0.4990    1424.10789       0.9463       0.4989
   1424.09263       0.8831       0.4596    1424.09263       0.8831       0.4595
   1424.07737       0.9139       0.5104    1424.07737       0.9138       0.5103
   1424.06211       0.9534       0.6853    1424.06211       0.9534       0.6852
   1424.04685       0.8572       0.5238    1424.04685       0.8572       0.5237
   1424.03159       0.9263       0.5331    1424.03159       0.9262       0.5330
   1424.01633       0.9046       0.4642    1424.01633       0.9046       0.4641
   1424.00107       0.9738       0.4256    1424.00107       0.9737       0.4255
