#     FILENAME=Skynet_58945_M31_30kpc_radius_44914_54517.A.onoff.cal.txt
#     BASENAME=Skynet_58945_M31_30kpc_radius_44914_54517
#      CONTROL=SKYNET
#     PROJCODE=Skynet_58945_M31_30kpc_radius_44914
#     DATAROOT=/raid/scratch/cyborg/SkynetData
#      DATADIR=/raid/scratch/cyborg
#     DATADIR2=/raid/scratch/cyborg/SkynetData/Skynet_58945_M31_30kpc_radius_4
#     SCANNAME=2020_03_09_19
#     SRC_NAME=M31_30kpc_radius
#     OBSERVER=unioncollege_21317
#     DATE_OBS=2020-04-06T16:14:14.290
#        OBSID=44914
#      SCANNUM=54517
#          MJD=58945.6765543
#          UTC=58454
#     SCANTYPE=onoff
#     DATAMODE=HIRES
#     RECEIVER=Rx1_2
#      OBSFREQ=1395.0000
# Actual_FREQ1=1423.0000,
# Actual_FREQ2=1423.0000
#    LO1Tuning=6873.0000
#     RFFILTER=1355_1435
#        OBSBW=-15.6250
#     EFFBANDW=15.6250
#        NCHAN=1024
#    STARTCHAN=51
#     STOPCHAN=972
#         TINT=0.3000
#         TBIN=0.00013107
#       ACCLEN=2048 
#     DURATION=171.60
#     EXPOSURE=124.78
#        FOCUS=36.895
#       RA,DEC=00:34:14.44, 39:17:39.19
#      RA(deg)=7.19183
#     DEC(deg)=39.29413
#   WIDTH(deg)=2.0222x0.0062
#    AZIM(deg)=78.1690
#    ELEV(deg)=83.6664
#     COORDREF=RA_DEC_
#         HREF=8.4802
#         VREF=39.2942
#      RADESYS=FK5
#       OFFSYS=RADEC
#      EQUINOX=2000.00
#     IFATTENS=21.00, 5.00
#   BALANCELEV=1.200 
#   POWER_XLYR=[0.69, 1.26] 
#       VELDEF=RADI-OBS 
#     VELOCITY=0.000 
#         NPOL=2 
#      POLMODE=Linear 
#      POLTYPE=XXYY 
#      WARNING=None 
#     NOISECAL=HI 
#       PRECAL=2 
#      POSTCAL=2 
#     CRYOTEMP=15 
#      BOXTEMP=32 
#         TSYS=XX1:72.20, YY1:75.30
#         TSYS=XX2:73.52, YY2:75.41
#         TCAL=XX1:9.18, YY1:10.14
#         TCAL=XX2:9.18, YY2:10.14
# Calibrated spectra: Tsys*(ON-OFF)/OFF 
#                
#                
#Freq1(MHz)         XX1          YY1   Freq2(MHz)       XX2         YY2 
   1430.03430     -23.5633     -30.5987    1430.03430     -23.9938     -30.6454
   1430.01904     -23.4964     -30.5282    1430.01904     -23.9257     -30.5747
   1430.00378     -23.7345     -30.6405    1430.00378     -24.1681     -30.6872
   1429.98853     -23.6369     -30.4961    1429.98853     -24.0688     -30.5426
   1429.97327     -23.5347     -30.5612    1429.97327     -23.9646     -30.6078
   1429.95801     -23.6596     -30.5862    1429.95801     -24.0918     -30.6328
   1429.94275     -23.5981     -30.6006    1429.94275     -24.0292     -30.6473
   1429.92749     -23.7341     -30.5196    1429.92749     -24.1677     -30.5662
   1429.91223     -23.5867     -30.4891    1429.91223     -24.0176     -30.5356
   1429.89697     -23.6212     -30.5581    1429.89697     -24.0528     -30.6047
   1429.88171     -23.5247     -30.5745    1429.88171     -23.9545     -30.6211
   1429.86646     -23.5514     -30.5173    1429.86646     -23.9817     -30.5639
   1429.85120     -23.6169     -30.6638    1429.85120     -24.0483     -30.7105
   1429.83594     -23.5307     -30.5683    1429.83594     -23.9606     -30.6149
   1429.82068     -23.5997     -30.4795    1429.82068     -24.0309     -30.5259
   1429.80542     -23.5120     -30.5812    1429.80542     -23.9415     -30.6278
   1429.79016     -23.6216     -30.6025    1429.79016     -24.0532     -30.6492
   1429.77490     -23.5688     -30.6598    1429.77490     -23.9994     -30.7066
   1429.75964     -23.6358     -30.6377    1429.75964     -24.0676     -30.6844
   1429.74438     -23.5920     -30.6219    1429.74438     -24.0230     -30.6686
   1429.72913     -23.5971     -30.6154    1429.72913     -24.0282     -30.6620
   1429.71387     -23.6635     -30.6337    1429.71387     -24.0959     -30.6804
   1429.69861     -23.5542     -30.6390    1429.69861     -23.9845     -30.6857
   1429.68335     -23.5222     -30.4964    1429.68335     -23.9520     -30.5429
   1429.66809     -23.6746     -30.6177    1429.66809     -24.1071     -30.6644
   1429.65283     -23.5151     -30.6437    1429.65283     -23.9447     -30.6904
   1429.63757     -23.5442     -30.5450    1429.63757     -23.9743     -30.5916
   1429.62231     -23.5434     -30.4967    1429.62231     -23.9735     -30.5432
   1429.60706     -23.5605     -30.5196    1429.60706     -23.9909     -30.5662
   1429.59180     -23.5018     -30.5512    1429.59180     -23.9311     -30.5978
   1429.57654     -23.6224     -30.6093    1429.57654     -24.0540     -30.6560
   1429.56128     -23.6436     -30.6326    1429.56128     -24.0755     -30.6793
   1429.54602     -23.6813     -30.5763    1429.54602     -24.1140     -30.6229
   1429.53076     -23.4543     -30.6349    1429.53076     -23.8828     -30.6816
   1429.51550     -23.5620     -30.7236    1429.51550     -23.9925     -30.7704
   1429.50024     -23.5319     -30.5137    1429.50024     -23.9619     -30.5602
   1429.48499     -23.5627     -30.5224    1429.48499     -23.9932     -30.5689
   1429.46973     -23.4967     -30.6921    1429.46973     -23.9260     -30.7389
   1429.45447     -23.5210     -30.5672    1429.45447     -23.9508     -30.6138
   1429.43921     -23.3742     -30.5611    1429.43921     -23.8012     -30.6077
   1429.42395     -23.4571     -30.7076    1429.42395     -23.8856     -30.7544
   1429.40869     -23.6370     -30.5221    1429.40869     -24.0689     -30.5686
   1429.39343     -23.4317     -30.6309    1429.39343     -23.8598     -30.6776
   1429.37817     -23.5039     -30.7312    1429.37817     -23.9333     -30.7781
   1429.36292     -23.3720     -30.7036    1429.36292     -23.7990     -30.7505
   1429.34766     -23.4381     -30.6978    1429.34766     -23.8663     -30.7446
   1429.33240     -23.5104     -30.6309    1429.33240     -23.9399     -30.6776
   1429.31714     -23.5686     -30.7129    1429.31714     -23.9992     -30.7597
   1429.30188     -23.4898     -30.5913    1429.30188     -23.9190     -30.6379
   1429.28662     -23.3972     -30.8094    1429.28662     -23.8246     -30.8563
   1429.27136     -23.4973     -30.5567    1429.27136     -23.9266     -30.6033
   1429.25610     -23.4166     -30.7303    1429.25610     -23.8445     -30.7771
   1429.24084     -23.4274     -30.6758    1429.24084     -23.8554     -30.7226
   1429.22559     -23.5728     -30.6826    1429.22559     -24.0034     -30.7294
   1429.21033     -23.4567     -30.6577    1429.21033     -23.8852     -30.7045
   1429.19507     -23.3982     -30.6664    1429.19507     -23.8256     -30.7132
   1429.17981     -23.4898     -30.6673    1429.17981     -23.9189     -30.7141
   1429.16455     -23.4088     -30.7719    1429.16455     -23.8365     -30.8188
   1429.14929     -23.4566     -30.6052    1429.14929     -23.8851     -30.6518
   1429.13403     -23.3884     -30.7390    1429.13403     -23.8157     -30.7859
   1429.11877     -23.5125     -30.7429    1429.11877     -23.9421     -30.7898
   1429.10352     -23.4253     -30.7577    1429.10352     -23.8533     -30.8046
   1429.08826     -23.3575     -30.7590    1429.08826     -23.7843     -30.8059
   1429.07300     -23.5506     -30.8213    1429.07300     -23.9809     -30.8683
   1429.05774     -23.3459     -30.7189    1429.05774     -23.7724     -30.7657
   1429.04248     -23.3502     -30.7397    1429.04248     -23.7768     -30.7866
   1429.02722     -23.3448     -30.7658    1429.02722     -23.7713     -30.8127
   1429.01196     -23.2063     -30.7773    1429.01196     -23.6303     -30.8242
   1428.99670     -23.3446     -30.7326    1428.99670     -23.7711     -30.7794
   1428.98145     -23.4496     -30.7683    1428.98145     -23.8780     -30.8152
   1428.96619     -23.2574     -30.7414    1428.96619     -23.6823     -30.7883
   1428.95093     -23.2250     -30.6803    1428.95093     -23.6493     -30.7271
   1428.93567     -23.3007     -30.7701    1428.93567     -23.7264     -30.8170
   1428.92041     -23.3385     -30.7598    1428.92041     -23.7648     -30.8067
   1428.90515     -23.3009     -30.7462    1428.90515     -23.7266     -30.7931
   1428.88989     -23.2827     -30.7328    1428.88989     -23.7080     -30.7796
   1428.87463     -23.3077     -30.8037    1428.87463     -23.7335     -30.8507
   1428.85938     -23.2802     -30.7964    1428.85938     -23.7056     -30.8434
   1428.84412     -23.3827     -30.8738    1428.84412     -23.8099     -30.9209
   1428.82886     -23.2058     -30.7436    1428.82886     -23.6297     -30.7904
   1428.81360     -23.3114     -30.9076    1428.81360     -23.7373     -30.9548
   1428.79834     -23.2834     -30.8497    1428.79834     -23.7088     -30.8967
   1428.78308     -23.2501     -30.8000    1428.78308     -23.6749     -30.8470
   1428.76782     -23.1855     -30.8356    1428.76782     -23.6091     -30.8826
   1428.75256     -23.3107     -30.8561    1428.75256     -23.7366     -30.9031
   1428.73730     -23.3801     -30.8402    1428.73730     -23.8073     -30.8873
   1428.72205     -23.1479     -30.6699    1428.72205     -23.5708     -30.7166
   1428.70679     -23.2299     -30.7724    1428.70679     -23.6543     -30.8193
   1428.69153     -23.3028     -30.8154    1428.69153     -23.7285     -30.8624
   1428.67627     -23.2079     -30.8491    1428.67627     -23.6319     -30.8961
   1428.66101     -23.3042     -30.9669    1428.66101     -23.7300     -31.0141
   1428.64575     -23.3168     -30.8700    1428.64575     -23.7428     -30.9171
   1428.63049     -23.2197     -30.9570    1428.63049     -23.6439     -31.0043
   1428.61523     -23.1490     -30.8457    1428.61523     -23.5719     -30.8927
   1428.59998     -23.2162     -30.7570    1428.59998     -23.6404     -30.8039
   1428.58472     -23.2932     -30.9761    1428.58472     -23.7187     -31.0233
   1428.56946     -23.2043     -31.0485    1428.56946     -23.6282     -31.0958
   1428.55420     -23.2954     -30.9903    1428.55420     -23.7210     -31.0376
   1428.53894     -23.1904     -30.9768    1428.53894     -23.6141     -31.0241
   1428.52368     -23.1668     -30.9543    1428.52368     -23.5900     -31.0015
   1428.50842     -23.3101     -30.9127    1428.50842     -23.7359     -30.9599
   1428.49316     -23.1324     -31.0594    1428.49316     -23.5550     -31.1068
   1428.47791     -23.1620     -30.9179    1428.47791     -23.5852     -30.9650
   1428.46265     -23.1592     -30.8720    1428.46265     -23.5823     -30.9190
   1428.44739     -23.2251     -30.8778    1428.44739     -23.6494     -30.9249
   1428.43213     -23.1717     -30.9165    1428.43213     -23.5951     -30.9636
   1428.41687     -23.1722     -30.9645    1428.41687     -23.5955     -31.0118
   1428.40161     -23.2717     -30.9649    1428.40161     -23.6969     -31.0121
   1428.38635     -23.1763     -30.9814    1428.38635     -23.5997     -31.0286
   1428.37109     -23.3058     -31.0785    1428.37109     -23.7316     -31.1259
   1428.35583     -23.1880     -31.0058    1428.35583     -23.6116     -31.0531
   1428.34058     -23.1387     -31.0596    1428.34058     -23.5615     -31.1070
   1428.32532     -23.2436     -30.9972    1428.32532     -23.6683     -31.0444
   1428.31006     -23.0888     -31.0168    1428.31006     -23.5106     -31.0641
   1428.29480     -23.2842     -30.9294    1428.29480     -23.7096     -30.9766
   1428.27954     -23.3643     -30.8679    1428.27954     -23.7911     -30.9150
   1428.26428     -23.1536     -30.8704    1428.26428     -23.5766     -30.9175
   1428.24902     -23.0915     -30.9515    1428.24902     -23.5134     -30.9987
   1428.23376     -23.0326     -31.0174    1428.23376     -23.4534     -31.0646
   1428.21851     -23.0478     -31.0041    1428.21851     -23.4689     -31.0514
   1428.20325     -23.2198     -31.0255    1428.20325     -23.6441     -31.0728
   1428.18799     -23.3307     -31.0096    1428.18799     -23.7569     -31.0569
   1428.17273     -23.1751     -31.0334    1428.17273     -23.5985     -31.0807
   1428.15747     -23.1113     -30.9450    1428.15747     -23.5336     -30.9922
   1428.14221     -23.1721     -31.0640    1428.14221     -23.5954     -31.1114
   1428.12695     -23.1994     -31.0473    1428.12695     -23.6233     -31.0947
   1428.11169     -23.0860     -30.9764    1428.11169     -23.5078     -31.0236
   1428.09644     -23.1901     -31.0019    1428.09644     -23.6138     -31.0492
   1428.08118     -23.1542     -31.0511    1428.08118     -23.5773     -31.0985
   1428.06592     -23.1244     -31.1114    1428.06592     -23.5469     -31.1589
   1428.05066     -23.2205     -31.0426    1428.05066     -23.6447     -31.0900
   1428.03540     -23.2272     -31.0335    1428.03540     -23.6516     -31.0808
   1428.02014     -23.2040     -30.9907    1428.02014     -23.6279     -31.0379
   1428.00488     -23.1807     -31.0457    1428.00488     -23.6043     -31.0931
   1427.98962     -23.1267     -31.1272    1427.98962     -23.5492     -31.1747
   1427.97437     -23.1131     -31.0866    1427.97437     -23.5354     -31.1340
   1427.95911     -23.0474     -31.0588    1427.95911     -23.4685     -31.1061
   1427.94385     -23.1491     -31.0831    1427.94385     -23.5720     -31.1305
   1427.92859     -23.1478     -31.1586    1427.92859     -23.5708     -31.2062
   1427.91333     -23.1360     -31.1062    1427.91333     -23.5587     -31.1536
   1427.89807     -23.0688     -31.0634    1427.89807     -23.4902     -31.1108
   1427.88281     -23.0819     -31.1340    1427.88281     -23.5036     -31.1815
   1427.86755     -23.1148     -31.1920    1427.86755     -23.5371     -31.2396
   1427.85229     -23.1621     -31.1046    1427.85229     -23.5853     -31.1521
   1427.83704     -23.0435     -31.0798    1427.83704     -23.4645     -31.1272
   1427.82178     -23.1387     -31.1285    1427.82178     -23.5615     -31.1759
   1427.80652     -23.1829     -31.1159    1427.80652     -23.6065     -31.1633
   1427.79126     -23.1801     -31.1261    1427.79126     -23.6036     -31.1735
   1427.77600     -23.1163     -31.1371    1427.77600     -23.5387     -31.1846
   1427.76074     -23.1419     -31.1421    1427.76074     -23.5647     -31.1896
   1427.74548     -23.2374     -31.1329    1427.74548     -23.6620     -31.1804
   1427.73022     -23.1110     -31.0313    1427.73022     -23.5332     -31.0786
   1427.71497     -23.1965     -31.1483    1427.71497     -23.6203     -31.1958
   1427.69971     -23.2292     -31.1756    1427.69971     -23.6536     -31.2231
   1427.68445     -23.1067     -31.2167    1427.68445     -23.5288     -31.2643
   1427.66919     -23.0854     -31.2735    1427.66919     -23.5071     -31.3212
   1427.65393     -23.0196     -31.1657    1427.65393     -23.4402     -31.2133
   1427.63867     -23.1212     -31.1454    1427.63867     -23.5436     -31.1929
   1427.62341     -23.0644     -31.2348    1427.62341     -23.4858     -31.2825
   1427.60815     -23.0559     -31.2064    1427.60815     -23.4772     -31.2540
   1427.59290     -23.1157     -31.1614    1427.59290     -23.5380     -31.2089
   1427.57764     -23.1487     -31.1695    1427.57764     -23.5716     -31.2170
   1427.56238     -23.1292     -31.1917    1427.56238     -23.5517     -31.2393
   1427.54712     -23.1624     -31.1464    1427.54712     -23.5856     -31.1939
   1427.53186     -23.1455     -31.2042    1427.53186     -23.5683     -31.2517
   1427.51660     -23.1367     -31.2368    1427.51660     -23.5594     -31.2845
   1427.50134     -23.1563     -31.3204    1427.50134     -23.5794     -31.3682
   1427.48608     -23.1843     -31.2634    1427.48608     -23.6079     -31.3111
   1427.47083     -23.1507     -31.3189    1427.47083     -23.5736     -31.3666
   1427.45557     -23.1708     -31.2704    1427.45557     -23.5941     -31.3181
   1427.44031     -23.1819     -31.2376    1427.44031     -23.6055     -31.2852
   1427.42505     -23.1424     -31.1966    1427.42505     -23.5652     -31.2442
   1427.40979     -23.1463     -31.2218    1427.40979     -23.5692     -31.2694
   1427.39453     -23.0420     -31.2225    1427.39453     -23.4630     -31.2701
   1427.37927     -23.0698     -31.2375    1427.37927     -23.4912     -31.2851
   1427.36401     -23.0660     -31.2896    1427.36401     -23.4874     -31.3373
   1427.34875     -23.0598     -31.1270    1427.34875     -23.4811     -31.1745
   1427.33350     -23.1454     -31.2019    1427.33350     -23.5683     -31.2495
   1427.31824     -23.0798     -31.2274    1427.31824     -23.5015     -31.2750
   1427.30298     -23.0786     -31.2256    1427.30298     -23.5002     -31.2733
   1427.28772     -23.0493     -31.1497    1427.28772     -23.4704     -31.1972
   1427.27246     -22.9382     -31.1968    1427.27246     -23.3573     -31.2444
   1427.25720     -23.1152     -31.2536    1427.25720     -23.5376     -31.3012
   1427.24194     -23.0725     -31.2022    1427.24194     -23.4940     -31.2498
   1427.22668     -23.0423     -31.2008    1427.22668     -23.4633     -31.2483
   1427.21143     -23.0936     -31.3904    1427.21143     -23.5155     -31.4383
   1427.19617     -23.2408     -31.2148    1427.19617     -23.6654     -31.2624
   1427.18091     -23.0736     -31.2872    1427.18091     -23.4951     -31.3349
   1427.16565     -23.0330     -31.3585    1427.16565     -23.4538     -31.4063
   1427.15039     -23.1645     -31.2825    1427.15039     -23.5877     -31.3302
   1427.13513     -23.2389     -31.3449    1427.13513     -23.6635     -31.3927
   1427.11987     -23.2071     -31.2613    1427.11987     -23.6310     -31.3089
   1427.10461     -23.1932     -31.2099    1427.10461     -23.6169     -31.2575
   1427.08936     -23.1568     -31.3046    1427.08936     -23.5798     -31.3523
   1427.07410     -23.1832     -31.2343    1427.07410     -23.6068     -31.2819
   1427.05884     -23.2580     -31.2503    1427.05884     -23.6830     -31.2980
   1427.04358     -23.1440     -31.3243    1427.04358     -23.5668     -31.3721
   1427.02832     -23.1384     -31.2946    1427.02832     -23.5611     -31.3423
   1427.01306     -23.0572     -31.2470    1427.01306     -23.4785     -31.2946
   1426.99780     -23.1635     -31.3051    1426.99780     -23.5867     -31.3528
   1426.98254     -23.1033     -31.2570    1426.98254     -23.5254     -31.3046
   1426.96729     -23.2380     -31.2848    1426.96729     -23.6626     -31.3325
   1426.95203     -23.0431     -31.4058    1426.95203     -23.4641     -31.4537
   1426.93677     -23.1485     -31.2870    1426.93677     -23.5714     -31.3347
   1426.92151     -23.1764     -31.3001    1426.92151     -23.5999     -31.3478
   1426.90625     -23.1210     -31.2267    1426.90625     -23.5434     -31.2743
   1426.89099     -23.1252     -31.3735    1426.89099     -23.5477     -31.4214
   1426.87573     -23.2142     -31.2834    1426.87573     -23.6383     -31.3311
   1426.86047     -23.1936     -31.1924    1426.86047     -23.6174     -31.2399
   1426.84521     -23.1210     -31.3075    1426.84521     -23.5434     -31.3552
   1426.82996     -23.2070     -31.3089    1426.82996     -23.6310     -31.3566
   1426.81470     -23.2425     -31.4121    1426.81470     -23.6671     -31.4600
   1426.79944     -23.2507     -31.2796    1426.79944     -23.6755     -31.3273
   1426.78418     -23.1007     -31.2533    1426.78418     -23.5227     -31.3010
   1426.76892     -23.1252     -31.3042    1426.76892     -23.5476     -31.3519
   1426.75366     -23.1435     -31.3235    1426.75366     -23.5663     -31.3713
   1426.73840     -23.1573     -31.2639    1426.73840     -23.5804     -31.3116
   1426.72314     -23.0993     -31.2462    1426.72314     -23.5213     -31.2938
   1426.70789     -23.2411     -31.3477    1426.70789     -23.6657     -31.3955
   1426.69263     -23.1588     -31.2413    1426.69263     -23.5819     -31.2890
   1426.67737     -23.1340     -31.3142    1426.67737     -23.5567     -31.3620
   1426.66211     -22.7188     -31.1853    1426.66211     -23.1338     -31.2329
   1426.64685     -23.2089     -31.4001    1426.64685     -23.6329     -31.4480
   1426.63159     -23.2828     -31.3233    1426.63159     -23.7081     -31.3710
   1426.61633     -23.1337     -31.3209    1426.61633     -23.5563     -31.3687
   1426.60107     -23.0129     -31.3428    1426.60107     -23.4333     -31.3906
