#     FILENAME=Skynet_59212_ASTRO_204_M31_JuliaMoylan_51656_627.A.onoff.cal.txt
#     BASENAME=Skynet_59212_ASTRO_204_M31_JuliaMoylan_51656_627
#      CONTROL=SKYNET
#     PROJCODE=Skynet_59212_ASTRO_204_M31_JuliaMoylan_51656
#     DATAROOT=/raid/scratch/cyborg/SkynetData
#      DATADIR=/raid/scratch/cyborg
#     DATADIR2=/raid/scratch/cyborg/SkynetData/Skynet_59212_ASTRO_204_M31_Juli
#     SCANNAME=2019_06_26_10
#     SRC_NAME=ASTRO_204_M31_JuliaMoylan
#     OBSERVER=haverford2_26746
#     DATE_OBS=2020-12-29T22:03:06.980
#        OBSID=51656
#      SCANNUM=627
#          MJD=59212.9188308
#          UTC=79387
#     SCANTYPE=onoff
#     DATAMODE=HIRES
#     RECEIVER=Rx1_2
#      OBSFREQ=1395.0000
# Actual_FREQ1=1421.8000,
# Actual_FREQ2=1390.5500
#    LO1Tuning=6856.1800
#     RFFILTER=1355_1435
#        OBSBW=-15.6250
#     EFFBANDW=15.6250
#        NCHAN=1024
#    STARTCHAN=51
#     STOPCHAN=972
#         TINT=0.9999
#         TBIN=0.00419430
#       ACCLEN=2048 
#     DURATION=448.00
#     EXPOSURE=402.98
#        FOCUS=37.071
#       RA,DEC=00:42:59.44, 41:16:07.17
#      RA(deg)=12.68076
#     DEC(deg)=41.26880
#   WIDTH(deg)=3.0192x0.0015
#    AZIM(deg)=72.6165
#    ELEV(deg)=72.6186
#     COORDREF=RA_DEC_
#         HREF=10.6847
#         VREF=41.2688
#      RADESYS=FK5
#       OFFSYS=RADEC
#      EQUINOX=2000.00
#     IFATTENS=22.00, 15.00
#   BALANCELEV=1.200 
#   POWER_XLYR=[1.76, 3.08] 
#       VELDEF=RADI-OBS 
#     VELOCITY=0.000 
#         NPOL=2 
#      POLMODE=Linear 
#      POLTYPE=XXYY 
#      WARNING=None 
#     NOISECAL=HI 
#       PRECAL=5 
#      POSTCAL=5 
#     CRYOTEMP=24 
#      BOXTEMP=33 
#         TSYS=XX1:35.46, YY1:43.40
#         TSYS=XX2:40.31, YY2:40.08
#         TCAL=XX1:9.17, YY1:10.07
#         TCAL=XX2:9.14, YY2:9.87
# Calibrated spectra: Tsys*(ON-OFF)/OFF 
#                
#                
#Freq1(MHz)         XX1          YY1   Freq2(MHz)       XX2         YY2 
   1428.83430       0.7574       0.3423    1397.58430       1.0927       0.7909
   1428.81904       0.7398       0.3087    1397.56904       1.0427       0.7664
   1428.80378       0.6781       0.3041    1397.55378       1.0853       0.7924
   1428.78853       0.7396       0.3242    1397.53853       1.0498       0.7464
   1428.77327       0.7649       0.3312    1397.52327       1.1099       0.6823
   1428.75801       0.7550       0.3364    1397.50801       1.0709       0.7511
   1428.74275       0.7547       0.2386    1397.49275       0.9911       0.6696
   1428.72749       0.7429       0.2994    1397.47749       1.0604       0.6339
   1428.71223       0.7189       0.2044    1397.46223       1.0568       0.7287
   1428.69697       0.7396       0.2674    1397.44697       1.0639       0.6941
   1428.68171       0.7458       0.3335    1397.43171       0.9930       0.6610
   1428.66646       0.7528       0.3180    1397.41646       1.0471       0.6733
   1428.65120       0.7495       0.2371    1397.40120       1.0794       0.6834
   1428.63594       0.7021       0.2588    1397.38594       1.0382       0.6471
   1428.62068       0.6900       0.3236    1397.37068       1.1161       0.6428
   1428.60542       0.7452       0.2912    1397.35542       1.0121       0.5443
   1428.59016       0.7601       0.2333    1397.34016       1.0130       0.6540
   1428.57490       0.7168       0.3334    1397.32490       0.9804       0.5940
   1428.55964       0.7372       0.2266    1397.30964       1.0153       0.5959
   1428.54438       0.7392       0.2691    1397.29438       0.9526       0.4665
   1428.52913       0.7399       0.1866    1397.27913       0.9802       0.5846
   1428.51387       0.7241       0.2568    1397.26387       0.9546       0.5099
   1428.49861       0.7235       0.2129    1397.24861       0.9956       0.4857
   1428.48335       0.7317       0.2802    1397.23335       0.9874       0.4963
   1428.46809       0.7021       0.2527    1397.21809       0.9824       0.5090
   1428.45283       0.7065       0.2573    1397.20283       0.9838       0.5075
   1428.43757       0.7411       0.1895    1397.18757       0.9603       0.3791
   1428.42231       0.7629       0.2689    1397.17231       0.9359       0.4071
   1428.40706       0.7516       0.1966    1397.15706       0.9960       0.5158
   1428.39180       0.7216       0.1176    1397.14180       0.9450       0.4933
   1428.37654       0.7069       0.1309    1397.12654       0.9151       0.4674
   1428.36128       0.7173       0.1365    1397.11128       0.9955       0.3668
   1428.34602       0.6889       0.2320    1397.09602       0.9787       0.4901
   1428.33076       0.7039       0.1776    1397.08076       0.9394       0.4002
   1428.31550       0.7404       0.2150    1397.06550       0.9632       0.5096
   1428.30024       0.7095       0.1646    1397.05024       0.9271       0.4957
   1428.28499       0.7572       0.1795    1397.03499       0.9079       0.5449
   1428.26973       0.7433       0.2239    1397.01973       0.9269       0.3654
   1428.25447       0.7729       0.1491    1397.00447       0.9480       0.5681
   1428.23921       0.7126       0.1592    1396.98921       0.9597       0.5194
   1428.22395       0.7271       0.1388    1396.97395       0.8943       0.5407
   1428.20869       0.7255       0.1801    1396.95869       0.9379       0.4505
   1428.19343       0.6579       0.1811    1396.94343       0.9784       0.5504
   1428.17817       0.7434       0.1240    1396.92817       0.9720       0.5285
   1428.16292       0.6894       0.2168    1396.91292       0.8709       0.6463
   1428.14766       0.7088       0.1632    1396.89766       0.9533       0.3582
   1428.13240       0.6896       0.1445    1396.88240       0.9434       0.5538
   1428.11714       0.7266       0.1534    1396.86714       0.9381       0.5434
   1428.10188       0.7071       0.0917    1396.85188       0.9185       0.4535
   1428.08662       0.7169       0.1299    1396.83662       0.9362       0.5481
   1428.07136       0.7138       0.1827    1396.82136       0.9409       0.6832
   1428.05610       0.7402       0.0765    1396.80610       0.9709       0.5871
   1428.04084       0.7300       0.1613    1396.79084       0.9110       0.6093
   1428.02559       0.7751       0.1206    1396.77559       0.9319       0.5660
   1428.01033       0.7685       0.1028    1396.76033       0.9980       0.7231
   1427.99507       0.7216       0.1619    1396.74507       0.9073       0.7066
   1427.97981       0.7690       0.1492    1396.72981       0.9033       0.8063
   1427.96455       0.7086       0.0781    1396.71455       0.9552       0.6292
   1427.94929       0.7811       0.0947    1396.69929       0.9370       0.7586
   1427.93403       0.7091       0.0679    1396.68403       0.9557       0.8318
   1427.91877       0.6944       0.1230    1396.66877       0.9125       0.7790
   1427.90352       0.7384       0.0868    1396.65352       0.9037       0.7847
   1427.88826       0.7261       0.1118    1396.63826       0.9298       0.7248
   1427.87300       0.7050       0.0932    1396.62300       0.9454       0.8010
   1427.85774       0.7065       0.0974    1396.60774       0.8969       0.8393
   1427.84248       0.7525       0.0883    1396.59248       0.9636       0.7897
   1427.82722       0.6787       0.0777    1396.57722       0.8510       0.7526
   1427.81196       0.7275       0.1017    1396.56196       0.9124       0.8055
   1427.79670       0.6558       0.1106    1396.54670       0.8845       0.8293
   1427.78145       0.7153       0.1506    1396.53145       0.9125       0.8625
   1427.76619       0.7604       0.1066    1396.51619       0.9114       0.8639
   1427.75093       0.7472       0.0819    1396.50093       0.9709       0.8583
   1427.73567       0.7176       0.0762    1396.48567       0.9613       0.8911
   1427.72041       0.7522       0.1382    1396.47041       0.9857       0.9650
   1427.70515       0.7325       0.1216    1396.45515       0.8748       0.8688
   1427.68989       0.6665       0.1421    1396.43989       0.8847       0.9207
   1427.67463       0.7285       0.1100    1396.42463       0.8923       0.9418
   1427.65937       0.7265       0.0800    1396.40937       0.8738       0.9747
   1427.64412       0.7574       0.0741    1396.39412       0.9224       0.9907
   1427.62886       0.7195       0.0889    1396.37886       0.8785       0.8914
   1427.61360       0.7278       0.0836    1396.36360       0.9257       0.9380
   1427.59834       0.7389       0.0174    1396.34834       0.8808       0.9634
   1427.58308       0.7745       0.1123    1396.33308       0.8890       1.0023
   1427.56782       0.7654       0.0642    1396.31782       0.8544       0.9826
   1427.55256       0.7413       0.0580    1396.30256       0.8992       0.9750
   1427.53730       0.7718       0.1258    1396.28730       0.8223       0.9760
   1427.52205       0.7022       0.0539    1396.27205       0.8568       0.9656
   1427.50679       0.7384       0.0490    1396.25679       0.9000       1.0042
   1427.49153       0.6841       0.0968    1396.24153       0.9044       1.0238
   1427.47627       0.6741      -0.0024    1396.22627       0.8716       1.0891
   1427.46101       0.6894       0.0151    1396.21101       0.8828       0.9529
   1427.44575       0.7306       0.0932    1396.19575       0.8533       0.9523
   1427.43049       0.7211       0.0673    1396.18049       0.8719       0.9987
   1427.41523       0.6936       0.0792    1396.16523       0.8614       0.9752
   1427.39998       0.7266      -0.0029    1396.14998       0.7834       1.0062
   1427.38472       0.7236       0.0544    1396.13472       0.7851       1.0228
   1427.36946       0.7362       0.0913    1396.11946       0.8357       1.0230
   1427.35420       0.6860       0.0611    1396.10420       0.8758       0.9923
   1427.33894       0.7298       0.0605    1396.08894       0.8470       1.0061
   1427.32368       0.7461       0.0821    1396.07368       0.8114       1.0614
   1427.30842       0.7213       0.0504    1396.05842       0.8408       1.0216
   1427.29316       0.7456       0.0986    1396.04316       0.8389       1.0417
   1427.27791       0.7507       0.0481    1396.02791       0.7836       1.0049
   1427.26265       0.7294       0.0590    1396.01265       0.8326       0.9859
   1427.24739       0.7620       0.0297    1395.99739       0.8022       1.0275
   1427.23213       0.7522       0.0693    1395.98213       0.8054       1.0977
   1427.21687       0.7464       0.0598    1395.96687       0.8169       1.0315
   1427.20161       0.7321       0.0522    1395.95161       0.7784       0.9957
   1427.18635       0.7411       0.0956    1395.93635       0.7952       1.0595
   1427.17109       0.7527       0.0573    1395.92109       0.7777       1.0134
   1427.15583       0.7486       0.0609    1395.90583       0.7789       1.0516
   1427.14058       0.7716       0.0262    1395.89058       0.7514       1.0226
   1427.12532       0.7281       0.0597    1395.87532       0.8130       1.0338
   1427.11006       0.7174       0.0120    1395.86006       0.7612       0.9969
   1427.09480       0.7410      -0.0262    1395.84480       0.7670       0.9941
   1427.07954       0.6921       0.0399    1395.82954       0.7831       1.0474
   1427.06428       0.7427       0.0314    1395.81428       0.7479       1.0728
   1427.04902       0.7460       0.0334    1395.79902       0.6849       1.0155
   1427.03376       0.7259       0.1190    1395.78376       0.7946       1.0938
   1427.01851       0.7727       0.0721    1395.76851       0.8065       1.0472
   1427.00325       0.7170       0.0223    1395.75325       0.7724       1.0279
   1426.98799       0.7207       0.0989    1395.73799       0.7469       1.0700
   1426.97273       0.6980       0.1197    1395.72273       0.7665       1.0129
   1426.95747       0.7472       0.0721    1395.70747       0.7457       1.0388
   1426.94221       0.7629       0.0471    1395.69221       0.7479       1.0086
   1426.92695       0.7558       0.0121    1395.67695       0.7688       0.9774
   1426.91169       0.6803       0.0166    1395.66169       0.8041       1.0620
   1426.89644       0.7632       0.0381    1395.64644       0.7169       1.0191
   1426.88118       0.7129       0.0695    1395.63118       0.8022       0.9683
   1426.86592       0.7398       0.0118    1395.61592       0.7563       1.0125
   1426.85066       0.6719       0.1058    1395.60066       0.7639       1.0173
   1426.83540       0.7194       0.0758    1395.58540       0.7634       1.0131
   1426.82014       0.7175       0.0418    1395.57014       0.7655       1.0549
   1426.80488       0.7492       0.0461    1395.55488       0.7210       0.9769
   1426.78962       0.6864       0.1039    1395.53962       0.6969       1.0334
   1426.77437       0.7138       0.0657    1395.52437       0.7260       0.9868
   1426.75911       0.7921       0.0195    1395.50911       0.7480       0.9900
   1426.74385       0.7245       0.0979    1395.49385       0.7598       1.0566
   1426.72859       0.7053       0.0762    1395.47859       0.7131       1.0002
   1426.71333       0.7678       0.0108    1395.46333       0.7490       0.9803
   1426.69807       0.7632       0.1033    1395.44807       0.7458       1.0275
   1426.68281       0.7430       0.1240    1395.43281       0.6844       1.0044
   1426.66755       0.7648       0.0828    1395.41755       0.6986       1.0300
   1426.65229       0.7373       0.0653    1395.40229       0.7111       0.9863
   1426.63704       0.7150       0.0493    1395.38704       0.6697       1.0333
   1426.62178       0.8037       2.4739    1395.37178       0.6294       1.0055
   1426.60652       0.7208       0.0268    1395.35652       0.7407       1.0171
   1426.59126       0.6816      -0.0455    1395.34126       0.6847       1.0115
   1426.57600       0.7442      -0.0223    1395.32600       0.6503       1.0037
   1426.56074       0.7645       0.0835    1395.31074       0.6233       0.9922
   1426.54548       0.7421       0.0900    1395.29548       0.7081       0.9523
   1426.53022       0.7656       0.0439    1395.28022       0.6620       0.9849
   1426.51497       0.7403       0.0663    1395.26497       0.6604       1.0367
   1426.49971       0.7401       0.0642    1395.24971       0.7031       1.0173
   1426.48445       0.7658       0.0946    1395.23445       0.7100       0.9319
   1426.46919       0.7696       0.1438    1395.21919       0.6323       0.9275
   1426.45393       0.7338       0.0985    1395.20393       0.6668       0.9523
   1426.43867       0.7472       0.1128    1395.18867       0.6881       0.9807
   1426.42341       0.7862       0.0477    1395.17341       0.6773       0.9751
   1426.40815       0.7571       0.0512    1395.15815       0.7066       0.9121
   1426.39290       0.7595       0.1053    1395.14290       0.6846       0.9302
   1426.37764       0.7827       0.0969    1395.12764       0.6557       0.9431
   1426.36238       0.7413       0.0642    1395.11238       0.6921       0.9542
   1426.34712       0.7403       0.1409    1395.09712       0.6357       0.9750
   1426.33186       0.7701       0.1066    1395.08186       0.6179       0.9340
   1426.31660       0.7498       0.1147    1395.06660       0.6599       0.9030
   1426.30134       0.7095       0.1422    1395.05134       0.6572       0.9565
   1426.28608       0.7667       0.1226    1395.03608       0.6421       0.9403
   1426.27083       0.7485       0.1463    1395.02083       0.6333       0.9804
   1426.25557       0.7685       0.1079    1395.00557       0.6779       0.9606
   1426.24031       0.7853       0.1544    1394.99031       0.6227       0.9262
   1426.22505       0.7534       0.0915    1394.97505       0.6398       0.9567
   1426.20979       0.7307       0.1057    1394.95979       0.6219       0.9016
   1426.19453       0.7097       0.1116    1394.94453       0.6459       0.8603
   1426.17927       0.6990       0.1091    1394.92927       0.6264       0.9033
   1426.16401       0.7619       0.1240    1394.91401       0.6602       0.8884
   1426.14875       0.7480       0.1233    1394.89875       0.6041       0.8990
   1426.13350       0.7491       0.1531    1394.88350       0.5973       0.9593
   1426.11824       0.7515       0.1871    1394.86824       0.6345       0.9110
   1426.10298       0.7566       0.0988    1394.85298       0.5582       0.9283
   1426.08772       0.7413       0.1200    1394.83772       0.5603       0.9445
   1426.07246       0.7629       0.1410    1394.82246       0.6142       0.9178
   1426.05720       0.7468       0.1831    1394.80720       0.5968       0.8895
   1426.04194       0.7640       0.1624    1394.79194       0.6185       0.8385
   1426.02668       0.6893       0.1984    1394.77668       0.6004       0.8672
   1426.01143       0.7834       0.1988    1394.76143       0.5705       0.9237
   1425.99617       0.7656       0.1792    1394.74617       0.5748       0.8579
   1425.98091       0.7453       0.1519    1394.73091       0.6184       0.8984
   1425.96565       0.7717       0.1532    1394.71565       0.6136       0.8702
   1425.95039       0.7823       0.1632    1394.70039       0.6122       0.8941
   1425.93513       0.7321       0.2324    1394.68513       0.5868       0.8625
   1425.91987       0.7500       0.1785    1394.66987       0.6037       0.8633
   1425.90461       0.7770       0.1421    1394.65461       0.5272       0.8904
   1425.88936       0.7834       0.2089    1394.63936       0.5554       0.8145
   1425.87410       0.8173       0.2204    1394.62410       0.5313       0.8163
   1425.85884       0.7104       0.2096    1394.60884       0.5142       0.8448
   1425.84358       0.7256       0.1949    1394.59358       0.5673       0.8358
   1425.82832       0.7366       0.2033    1394.57832       0.5813       0.8592
   1425.81306       0.7664       0.1854    1394.56306       0.5219       0.8687
   1425.79780       0.7403       0.1715    1394.54780       0.5330       0.8377
   1425.78254       0.7790       0.2246    1394.53254       0.5986       0.8376
   1425.76729       0.7457       0.1819    1394.51729       0.5787       0.8017
   1425.75203       0.7738       0.2471    1394.50203       0.5395       0.8008
   1425.73677       0.7778       0.2173    1394.48677       0.5219       0.8371
   1425.72151       0.7288       0.2798    1394.47151       0.5925       0.8572
   1425.70625       0.7538       0.2200    1394.45625       0.5393       0.8509
   1425.69099       0.7232       0.1980    1394.44099       0.5411       0.7976
   1425.67573       0.7145       0.2227    1394.42573       0.6031       0.8186
   1425.66047       0.7845       0.2448    1394.41047       0.5788       0.8395
   1425.64521       0.7192       0.2196    1394.39521       0.5176       0.8262
   1425.62996       0.7682       0.2377    1394.37996       0.5504       0.7564
   1425.61470       0.7746       0.2234    1394.36470       0.5268       0.8139
   1425.59944       0.7538       0.2687    1394.34944       0.5545       0.7743
   1425.58418       0.8067       0.2405    1394.33418       0.4847       0.7465
   1425.56892       0.7400       0.2875    1394.31892       0.5664       0.8041
   1425.55366       0.7576       0.3052    1394.30366       0.5086       0.8220
   1425.53840       0.7515       0.2129    1394.28840       0.5369       0.8475
   1425.52314       0.7649       0.3162    1394.27314       0.5213       0.7642
   1425.50789       0.7256       0.2744    1394.25789       0.5011       0.8090
   1425.49263       0.6902       0.2752    1394.24263       0.5014       0.8130
   1425.47737       0.7187       0.3081    1394.22737       0.5325       0.7710
   1425.46211       0.7300       0.3151    1394.21211       0.4989       0.7790
   1425.44685       0.7570       0.3043    1394.19685       0.5421       0.7527
   1425.43159       0.7821       0.3284    1394.18159       0.5770       0.7473
   1425.41633       0.7921       0.3131    1394.16633       0.5091       0.8327
