#     FILENAME=Skynet_59284_M31_15kpc_MBoyle_52426_1406.A.onoff.cal.txt
#     BASENAME=Skynet_59284_M31_15kpc_MBoyle_52426_1406
#      CONTROL=SKYNET
#     PROJCODE=Skynet_59284_M31_15kpc_MBoyle_52426
#     DATAROOT=/raid/scratch/cyborg/SkynetData
#      DATADIR=/raid/scratch/cyborg
#     DATADIR2=/raid/scratch/cyborg/SkynetData/Skynet_59284_M31_15kpc_MBoyle_5
#     SCANNAME=2019_06_26_10
#     SRC_NAME=M31_15kpc_MBoyle
#     OBSERVER=unioncollege_21317
#     DATE_OBS=2021-03-11T12:38:22.260
#        OBSID=52426
#      SCANNUM=1406
#          MJD=59284.5266465
#          UTC=45502
#     SCANTYPE=onoff
#     DATAMODE=HIRES
#     RECEIVER=Rx1_2
#      OBSFREQ=1395.0000
# Actual_FREQ1=1420.4000,
# Actual_FREQ2=1420.4000
#    LO1Tuning=6870.4000
#     RFFILTER=1355_1435
#        OBSBW=-15.6250
#     EFFBANDW=15.6250
#        NCHAN=1024
#    STARTCHAN=51
#     STOPCHAN=972
#         TINT=0.3000
#         TBIN=0.00419430
#       ACCLEN=2048 
#     DURATION=166.80
#     EXPOSURE=125.98
#        FOCUS=37.093
#       RA,DEC=00:39:27.21, 40:24:31.40
#      RA(deg)=8.48720
#     DEC(deg)=40.40885
#   WIDTH(deg)=2.0936x0.0319
#    AZIM(deg)=56.0005
#    ELEV(deg)=24.1877
#     COORDREF=RA_DEC_
#         HREF=9.7900
#         VREF=40.4090
#      RADESYS=FK5
#       OFFSYS=RADEC
#      EQUINOX=2000.00
#     IFATTENS=21.00, 14.00
#   BALANCELEV=1.200 
#   POWER_XLYR=[1.12, 1.19] 
#       VELDEF=RADI-OBS 
#     VELOCITY=0.000 
#         NPOL=2 
#      POLMODE=Linear 
#      POLTYPE=XXYY 
#      WARNING=None 
#     NOISECAL=HI 
#       PRECAL=2 
#      POSTCAL=2 
#     CRYOTEMP=15 
#      BOXTEMP=26 
#         TSYS=XX1:34.16, YY1:41.42
#         TSYS=XX2:34.16, YY2:41.40
#         TCAL=XX1:9.17, YY1:10.07
#         TCAL=XX2:9.17, YY2:10.07
# Calibrated spectra: Tsys*(ON-OFF)/OFF 
#                
#                
#Freq1(MHz)         XX1          YY1   Freq2(MHz)       XX2         YY2 
   1427.43430       0.4046       0.5403    1427.43430       0.4046       0.5402
   1427.41904       0.3858       0.4222    1427.41904       0.3858       0.4220
   1427.40378       0.4093       0.4650    1427.40378       0.4092       0.4649
   1427.38853       0.4304       0.5640    1427.38853       0.4303       0.5638
   1427.37327       0.4797       0.5126    1427.37327       0.4796       0.5124
   1427.35801       0.4772       0.4515    1427.35801       0.4770       0.4513
   1427.34275       0.4919       0.4693    1427.34275       0.4918       0.4692
   1427.32749       0.4126       0.4867    1427.32749       0.4125       0.4865
   1427.31223       0.3993       0.4981    1427.31223       0.3992       0.4979
   1427.29697       0.3655       0.5831    1427.29697       0.3654       0.5829
   1427.28171       0.5256       0.4691    1427.28171       0.5255       0.4689
   1427.26646       0.5089       0.4701    1427.26646       0.5088       0.4699
   1427.25120       0.4284       0.4624    1427.25120       0.4283       0.4623
   1427.23594       0.4136       0.4224    1427.23594       0.4135       0.4223
   1427.22068       0.3992       0.4566    1427.22068       0.3991       0.4565
   1427.20542       0.4637       0.5147    1427.20542       0.4636       0.5145
   1427.19016       0.4766       0.4435    1427.19016       0.4765       0.4434
   1427.17490       0.4480       0.5176    1427.17490       0.4479       0.5174
   1427.15964       0.4083       0.5297    1427.15964       0.4082       0.5295
   1427.14438       0.3724       0.4409    1427.14438       0.3723       0.4408
   1427.12913       0.4588       0.4216    1427.12913       0.4587       0.4215
   1427.11387       0.3787       0.4319    1427.11387       0.3787       0.4317
   1427.09861       0.4232       0.5627    1427.09861       0.4231       0.5625
   1427.08335       0.5573       0.3906    1427.08335       0.5571       0.3905
   1427.06809       0.4445       0.3127    1427.06809       0.4444       0.3126
   1427.05283       0.4480       0.4838    1427.05283       0.4479       0.4836
   1427.03757       0.4265       0.4458    1427.03757       0.4264       0.4457
   1427.02231       0.4499       0.4634    1427.02231       0.4498       0.4632
   1427.00706       0.4065       0.4398    1427.00706       0.4064       0.4397
   1426.99180       0.4981       0.4588    1426.99180       0.4980       0.4586
   1426.97654       0.5143       0.3436    1426.97654       0.5142       0.3435
   1426.96128       0.4781       0.4172    1426.96128       0.4780       0.4171
   1426.94602       0.4351       0.4432    1426.94602       0.4350       0.4430
   1426.93076       0.3500       0.4892    1426.93076       0.3499       0.4890
   1426.91550       0.4798       0.4050    1426.91550       0.4797       0.4049
   1426.90024       0.4943       0.3462    1426.90024       0.4942       0.3461
   1426.88499       0.5156       0.4949    1426.88499       0.5155       0.4947
   1426.86973       0.4358       0.4371    1426.86973       0.4357       0.4370
   1426.85447       0.4055       0.4949    1426.85447       0.4054       0.4947
   1426.83921       0.4987       0.5155    1426.83921       0.4986       0.5153
   1426.82395       0.4433       0.4145    1426.82395       0.4432       0.4144
   1426.80869       0.3998       0.4049    1426.80869       0.3997       0.4048
   1426.79343       0.4796       0.4703    1426.79343       0.4795       0.4702
   1426.77817       0.4858       0.4289    1426.77817       0.4857       0.4287
   1426.76292       0.4962       0.4229    1426.76292       0.4961       0.4228
   1426.74766       0.4317       0.3779    1426.74766       0.4316       0.3778
   1426.73240       0.3961       0.4511    1426.73240       0.3961       0.4510
   1426.71714       0.3946       0.4251    1426.71714       0.3945       0.4249
   1426.70188       0.4553       0.4016    1426.70188       0.4552       0.4015
   1426.68662       0.4589       0.4014    1426.68662       0.4588       0.4013
   1426.67136       0.3903       0.4423    1426.67136       0.3902       0.4422
   1426.65610       0.4735       0.4019    1426.65610       0.4734       0.4018
   1426.64084       0.4277       0.5110    1426.64084       0.4276       0.5108
   1426.62559       0.3486       0.3760    1426.62559       0.3485       0.3759
   1426.61033       0.4538       0.4867    1426.61033       0.4537       0.4865
   1426.59507       0.5358       0.3939    1426.59507       0.5357       0.3938
   1426.57981       0.5276       0.4686    1426.57981       0.5275       0.4684
   1426.56455       0.4183       0.4097    1426.56455       0.4182       0.4095
   1426.54929       0.5035       0.4274    1426.54929       0.5034       0.4272
   1426.53403       0.4804       0.4852    1426.53403       0.4803       0.4850
   1426.51877       0.3735       0.3808    1426.51877       0.3734       0.3807
   1426.50352       0.5594       0.3314    1426.50352       0.5593       0.3313
   1426.48826       0.4207       0.3958    1426.48826       0.4206       0.3957
   1426.47300       0.4560       0.4517    1426.47300       0.4559       0.4516
   1426.45774       0.3750       0.4632    1426.45774       0.3749       0.4631
   1426.44248       0.4404       0.4153    1426.44248       0.4403       0.4151
   1426.42722       0.4255       0.4577    1426.42722       0.4254       0.4576
   1426.41196       0.4551       0.4470    1426.41196       0.4550       0.4469
   1426.39670       0.5145       0.4150    1426.39670       0.5144       0.4149
   1426.38145       0.4628       0.4509    1426.38145       0.4627       0.4508
   1426.36619       0.4410       0.4010    1426.36619       0.4409       0.4009
   1426.35093       0.4346       0.3231    1426.35093       0.4345       0.3230
   1426.33567       0.4175       0.3481    1426.33567       0.4175       0.3480
   1426.32041       0.4953       0.4460    1426.32041       0.4952       0.4459
   1426.30515       0.5093       0.5276    1426.30515       0.5092       0.5274
   1426.28989       0.4629       0.4630    1426.28989       0.4628       0.4628
   1426.27463       0.4400       0.3994    1426.27463       0.4399       0.3993
   1426.25937       0.4294       0.4529    1426.25937       0.4293       0.4528
   1426.24412       0.4255       0.4397    1426.24412       0.4254       0.4396
   1426.22886       0.3791       0.4252    1426.22886       0.3790       0.4251
   1426.21360       0.4366       0.3818    1426.21360       0.4365       0.3817
   1426.19834       0.4534       0.4811    1426.19834       0.4533       0.4810
   1426.18308       0.3640       0.4222    1426.18308       0.3639       0.4220
   1426.16782       0.4600       0.3979    1426.16782       0.4599       0.3978
   1426.15256       0.4574       0.4634    1426.15256       0.4573       0.4633
   1426.13730       0.4782       0.4088    1426.13730       0.4781       0.4087
   1426.12205       0.4800       0.3420    1426.12205       0.4799       0.3419
   1426.10679       0.5212       0.4332    1426.10679       0.5211       0.4331
   1426.09153       0.4198       0.4671    1426.09153       0.4197       0.4670
   1426.07627       0.5484       0.4557    1426.07627       0.5483       0.4556
   1426.06101       0.5458       0.4798    1426.06101       0.5457       0.4797
   1426.04575       0.4564       0.4388    1426.04575       0.4563       0.4387
   1426.03049       0.3996       0.3998    1426.03049       0.3996       0.3996
   1426.01523       0.4652       0.5083    1426.01523       0.4651       0.5081
   1425.99998       0.5018       0.4504    1425.99998       0.5017       0.4503
   1425.98472       0.4096       0.4506    1425.98472       0.4095       0.4505
   1425.96946       0.4799       0.4463    1425.96946       0.4798       0.4462
   1425.95420       0.4489       0.3962    1425.95420       0.4488       0.3961
   1425.93894       0.4317       0.4401    1425.93894       0.4316       0.4400
   1425.92368       0.5086       0.4446    1425.92368       0.5085       0.4445
   1425.90842       0.4412       0.4226    1425.90842       0.4411       0.4225
   1425.89316       0.3853       0.3740    1425.89316       0.3853       0.3739
   1425.87791       0.4537       0.3151    1425.87791       0.4536       0.3150
   1425.86265       0.4569       0.3843    1425.86265       0.4568       0.3842
   1425.84739       0.5295       0.2980    1425.84739       0.5294       0.2979
   1425.83213       0.5587       0.3863    1425.83213       0.5586       0.3862
   1425.81687       0.5352       0.4621    1425.81687       0.5351       0.4620
   1425.80161       0.4970       0.5358    1425.80161       0.4969       0.5356
   1425.78635       0.4216       0.4113    1425.78635       0.4215       0.4112
   1425.77109       0.3939       0.4787    1425.77109       0.3939       0.4785
   1425.75583       0.4720       0.3649    1425.75583       0.4719       0.3648
   1425.74058       0.4051       0.5080    1425.74058       0.4050       0.5079
   1425.72532       0.4084       0.3978    1425.72532       0.4083       0.3976
   1425.71006       0.4321       0.3774    1425.71006       0.4320       0.3773
   1425.69480       0.4233       0.4553    1425.69480       0.4232       0.4552
   1425.67954       0.5080       0.3513    1425.67954       0.5079       0.3512
   1425.66428       0.5154       0.3409    1425.66428       0.5153       0.3408
   1425.64902       0.4539       0.4488    1425.64902       0.4538       0.4487
   1425.63376       0.4769       0.4437    1425.63376       0.4768       0.4436
   1425.61851       0.3774       0.4540    1425.61851       0.3773       0.4539
   1425.60325       0.4849       0.3889    1425.60325       0.4848       0.3887
   1425.58799       0.4881       0.4575    1425.58799       0.4880       0.4574
   1425.57273       0.4744       0.3769    1425.57273       0.4743       0.3768
   1425.55747       0.4628       0.4883    1425.55747       0.4627       0.4881
   1425.54221       0.4374       0.4276    1425.54221       0.4373       0.4275
   1425.52695       0.5548       0.4038    1425.52695       0.5547       0.4037
   1425.51169       0.5095       0.5060    1425.51169       0.5094       0.5058
   1425.49644       0.5197       0.4511    1425.49644       0.5196       0.4510
   1425.48118       0.5548       0.3745    1425.48118       0.5547       0.3743
   1425.46592       0.5011       0.4206    1425.46592       0.5010       0.4205
   1425.45066       0.4425       0.5045    1425.45066       0.4424       0.5044
   1425.43540       0.5139       0.4527    1425.43540       0.5138       0.4525
   1425.42014       0.4030       0.3469    1425.42014       0.4029       0.3468
   1425.40488       0.4538       0.3770    1425.40488       0.4537       0.3769
   1425.38962       0.4503       0.3807    1425.38962       0.4502       0.3806
   1425.37437       0.4161       0.3826    1425.37437       0.4160       0.3825
   1425.35911       0.5148       0.4244    1425.35911       0.5147       0.4243
   1425.34385       0.4673       0.3294    1425.34385       0.4672       0.3293
   1425.32859       0.5353       0.4785    1425.32859       0.5352       0.4784
   1425.31333       0.5230       0.3293    1425.31333       0.5229       0.3292
   1425.29807       0.4600       0.3770    1425.29807       0.4599       0.3769
   1425.28281       0.4687       0.4577    1425.28281       0.4686       0.4575
   1425.26755       0.4170       0.3801    1425.26755       0.4169       0.3800
   1425.25229       0.5070       0.4661    1425.25229       0.5069       0.4660
   1425.23704       0.4683       0.3549    1425.23704       0.4682       0.3548
   1425.22178       0.5093       0.3788    1425.22178       0.5092       0.3787
   1425.20652       0.4658       0.3694    1425.20652       0.4657       0.3693
   1425.19126       0.5539       0.4940    1425.19126       0.5538       0.4939
   1425.17600       0.4065       0.3551    1425.17600       0.4064       0.3550
   1425.16074       0.5047       0.4030    1425.16074       0.5045       0.4029
   1425.14548       0.5366       0.4530    1425.14548       0.5365       0.4528
   1425.13022       0.4882       0.5522    1425.13022       0.4880       0.5520
   1425.11497       0.4922       0.4849    1425.11497       0.4921       0.4848
   1425.09971       0.5053       0.3669    1425.09971       0.5052       0.3667
   1425.08445       0.4914       0.3701    1425.08445       0.4912       0.3700
   1425.06919       0.4933       0.4069    1425.06919       0.4932       0.4068
   1425.05393       0.5734       0.3771    1425.05393       0.5733       0.3770
   1425.03867       0.5082       0.4595    1425.03867       0.5081       0.4594
   1425.02341       0.5830       0.4425    1425.02341       0.5828       0.4424
   1425.00815       0.6619       0.4617    1425.00815       0.6618       0.4615
   1424.99290       0.5491       0.4506    1424.99290       0.5490       0.4504
   1424.97764       0.5636       0.3867    1424.97764       0.5635       0.3866
   1424.96238       0.6199       0.4569    1424.96238       0.6198       0.4568
   1424.94712       0.5459       0.4291    1424.94712       0.5458       0.4289
   1424.93186       0.4629       0.3696    1424.93186       0.4628       0.3695
   1424.91660       0.5259       0.4601    1424.91660       0.5258       0.4599
   1424.90134       0.4571       0.4616    1424.90134       0.4570       0.4614
   1424.88608       0.5277       0.4679    1424.88608       0.5276       0.4677
   1424.87083       0.5780       0.3786    1424.87083       0.5779       0.3784
   1424.85557       0.5598       0.3529    1424.85557       0.5596       0.3528
   1424.84031       0.4304       0.4040    1424.84031       0.4303       0.4039
   1424.82505       0.5259       0.3780    1424.82505       0.5258       0.3779
   1424.80979       0.6010       0.3804    1424.80979       0.6009       0.3803
   1424.79453       0.5773       0.4075    1424.79453       0.5772       0.4074
   1424.77927       0.5622       0.4802    1424.77927       0.5621       0.4801
   1424.76401       0.5574       0.4782    1424.76401       0.5572       0.4781
   1424.74875       0.5946       0.4627    1424.74875       0.5945       0.4626
   1424.73350       0.6068       0.4518    1424.73350       0.6067       0.4516
   1424.71824       0.5466       0.4109    1424.71824       0.5465       0.4107
   1424.70298       0.4839       0.4493    1424.70298       0.4838       0.4492
   1424.68772       0.4812       0.5821    1424.68772       0.4811       0.5820
   1424.67246       0.5018       0.4787    1424.67246       0.5017       0.4786
   1424.65720       0.5718       0.4397    1424.65720       0.5717       0.4396
   1424.64194       0.6173       0.4822    1424.64194       0.6172       0.4821
   1424.62668       0.6290       0.4564    1424.62668       0.6289       0.4562
   1424.61143       0.6418       0.4956    1424.61143       0.6416       0.4955
   1424.59617       0.5868       0.4753    1424.59617       0.5866       0.4752
   1424.58091       0.6356       0.5226    1424.58091       0.6354       0.5224
   1424.56565       0.5725       0.4160    1424.56565       0.5724       0.4159
   1424.55039       0.6088       0.5489    1424.55039       0.6087       0.5487
   1424.53513       0.5226       0.4609    1424.53513       0.5225       0.4607
   1424.51987       0.6186       0.5136    1424.51987       0.6185       0.5134
   1424.50461       0.5484       0.3811    1424.50461       0.5483       0.3810
   1424.48936       0.5092       0.3979    1424.48936       0.5091       0.3978
   1424.47410       0.5534       0.4780    1424.47410       0.5533       0.4779
   1424.45884       0.6008       0.4269    1424.45884       0.6007       0.4268
   1424.44358       0.5763       0.4111    1424.44358       0.5762       0.4110
   1424.42832       0.5735       0.5618    1424.42832       0.5734       0.5616
   1424.41306       0.5421       0.4662    1424.41306       0.5420       0.4660
   1424.39780       0.5544       0.5618    1424.39780       0.5543       0.5616
   1424.38254       0.5225       0.4817    1424.38254       0.5224       0.4815
   1424.36729       0.5604       0.4112    1424.36729       0.5603       0.4110
   1424.35203       0.6297       0.5016    1424.35203       0.6295       0.5014
   1424.33677       0.5844       0.4136    1424.33677       0.5842       0.4135
   1424.32151       0.5846       0.4207    1424.32151       0.5845       0.4205
   1424.30625       0.5711       0.4419    1424.30625       0.5710       0.4417
   1424.29099       0.6123       0.4537    1424.29099       0.6122       0.4536
   1424.27573       0.6121       0.4955    1424.27573       0.6119       0.4953
   1424.26047       0.5913       0.4159    1424.26047       0.5911       0.4157
   1424.24521       0.5889       0.4575    1424.24521       0.5888       0.4573
   1424.22996       0.5810       0.5761    1424.22996       0.5809       0.5759
   1424.21470       0.6029       0.5359    1424.21470       0.6028       0.5357
   1424.19944       0.5423       0.5450    1424.19944       0.5422       0.5448
   1424.18418       0.6238       0.4939    1424.18418       0.6236       0.4937
   1424.16892       0.5603       0.4897    1424.16892       0.5601       0.4895
   1424.15366       0.5793       0.4642    1424.15366       0.5792       0.4641
   1424.13840       0.5472       0.4446    1424.13840       0.5470       0.4445
   1424.12314       0.6450       0.5428    1424.12314       0.6449       0.5426
   1424.10789       0.5595       0.5142    1424.10789       0.5594       0.5140
   1424.09263       0.6079       0.4935    1424.09263       0.6078       0.4934
   1424.07737       0.5580       0.5405    1424.07737       0.5579       0.5403
   1424.06211       0.6843       0.6453    1424.06211       0.6841       0.6451
   1424.04685       0.5370       0.4783    1424.04685       0.5369       0.4782
   1424.03159       0.5373       0.4940    1424.03159       0.5372       0.4938
   1424.01633       0.5962       0.5216    1424.01633       0.5961       0.5214
   1424.00107       0.5715       0.5222    1424.00107       0.5714       0.5220
