#     FILENAME=Skynet_59002_M31_10kpcRadiusB_45049_54638.A.onoff.cal.txt
#     BASENAME=Skynet_59002_M31_10kpcRadiusB_45049_54638
#      CONTROL=SKYNET
#     PROJCODE=Skynet_59002_M31_10kpcRadiusB_45049
#     DATAROOT=/raid/scratch/cyborg/SkynetData
#      DATADIR=/raid/scratch/cyborg
#     DATADIR2=/raid/scratch/cyborg/SkynetData/Skynet_59002_M31_10kpcRadiusB_4
#     SCANNAME=2018_05_24_20
#     SRC_NAME=M31_10kpcRadiusB
#     OBSERVER=unioncollege_21317
#     DATE_OBS=2020-06-02T07:58:50.590
#        OBSID=45049
#      SCANNUM=54638
#          MJD=59002.33253
#          UTC=28731
#     SCANTYPE=onoff
#     DATAMODE=HIRES
#     RECEIVER=Rx1_2
#      OBSFREQ=1395.0000
# Actual_FREQ1=1423.0000,
# Actual_FREQ2=1423.0000
#    LO1Tuning=6873.0000
#     RFFILTER=1355_1435
#        OBSBW=-15.6250
#     EFFBANDW=15.6250
#        NCHAN=1024
#    STARTCHAN=51
#     STOPCHAN=972
#         TINT=0.3000
#         TBIN=0.00419430
#       ACCLEN=2048 
#     DURATION=168.00
#     EXPOSURE=126.88
#        FOCUS=37.071
#       RA,DEC=00:40:36.72, 40:41:18.73
#      RA(deg)=8.76874
#     DEC(deg)=40.68835
#   WIDTH(deg)=2.0882x0.0238
#    AZIM(deg)=60.4500
#    ELEV(deg)=32.1444
#     COORDREF=RA_DEC_
#         HREF=10.0813
#         VREF=40.6884
#      RADESYS=FK5
#       OFFSYS=RADEC
#      EQUINOX=2000.00
#     IFATTENS=21.00, 6.00
#   BALANCELEV=1.200 
#   POWER_XLYR=[1.25, 1.33] 
#       VELDEF=RADI-OBS 
#     VELOCITY=0.000 
#         NPOL=2 
#      POLMODE=Linear 
#      POLTYPE=XXYY 
#      WARNING=None 
#     NOISECAL=HI 
#       PRECAL=2 
#      POSTCAL=2 
#     CRYOTEMP=14 
#      BOXTEMP=25 
#         TSYS=XX1:37.54, YY1:37.67
#         TSYS=XX2:37.53, YY2:37.68
#         TCAL=XX1:9.18, YY1:10.14
#         TCAL=XX2:9.18, YY2:10.14
# Calibrated spectra: Tsys*(ON-OFF)/OFF 
#                
#                
#Freq1(MHz)         XX1          YY1   Freq2(MHz)       XX2         YY2 
   1430.03430       0.3583       0.4496    1430.03430       0.3582       0.4496
   1430.01904       0.4702       0.4881    1430.01904       0.4702       0.4882
   1430.00378       0.4004       0.5868    1430.00378       0.4003       0.5869
   1429.98853       0.4612       0.5166    1429.98853       0.4611       0.5167
   1429.97327       0.4761       0.5230    1429.97327       0.4760       0.5231
   1429.95801       0.4121       0.5157    1429.95801       0.4120       0.5158
   1429.94275       0.3394       0.5893    1429.94275       0.3394       0.5894
   1429.92749       0.4156       0.4023    1429.92749       0.4155       0.4024
   1429.91223       0.5051       0.5778    1429.91223       0.5050       0.5779
   1429.89697       0.5146       0.4949    1429.89697       0.5145       0.4950
   1429.88171       0.4976       0.4560    1429.88171       0.4975       0.4561
   1429.86646       0.5189       0.6961    1429.86646       0.5188       0.6962
   1429.85120       0.3621       0.5645    1429.85120       0.3621       0.5646
   1429.83594       0.5326       0.5735    1429.83594       0.5325       0.5736
   1429.82068       0.4332       0.4532    1429.82068       0.4331       0.4533
   1429.80542       0.5311       0.5080    1429.80542       0.5310       0.5081
   1429.79016       0.4240       0.5744    1429.79016       0.4239       0.5745
   1429.77490       0.3791       0.4322    1429.77490       0.3790       0.4323
   1429.75964       0.5572       0.4177    1429.75964       0.5571       0.4177
   1429.74438       0.4086       0.6391    1429.74438       0.4085       0.6392
   1429.72913       0.3006       0.4986    1429.72913       0.3005       0.4987
   1429.71387       0.4652       0.5453    1429.71387       0.4651       0.5454
   1429.69861       0.5258       0.4998    1429.69861       0.5257       0.4998
   1429.68335       0.4373       0.5121    1429.68335       0.4372       0.5122
   1429.66809       0.5043       0.5799    1429.66809       0.5042       0.5800
   1429.65283       0.4541       0.5230    1429.65283       0.4540       0.5230
   1429.63757       0.4435       0.5509    1429.63757       0.4434       0.5510
   1429.62231       0.4772       0.4984    1429.62231       0.4771       0.4985
   1429.60706       0.4411       0.4590    1429.60706       0.4410       0.4590
   1429.59180       0.5181       0.4772    1429.59180       0.5180       0.4773
   1429.57654       0.4042       0.5716    1429.57654       0.4041       0.5717
   1429.56128       0.4743       0.5301    1429.56128       0.4742       0.5302
   1429.54602       0.3667       0.5369    1429.54602       0.3666       0.5370
   1429.53076       0.3959       0.4841    1429.53076       0.3959       0.4841
   1429.51550       0.4487       0.4913    1429.51550       0.4486       0.4914
   1429.50024       0.4618       0.4869    1429.50024       0.4617       0.4870
   1429.48499       0.3288       0.4673    1429.48499       0.3288       0.4673
   1429.46973       0.5013       0.5553    1429.46973       0.5012       0.5554
   1429.45447       0.5273       0.4901    1429.45447       0.5272       0.4902
   1429.43921       0.5491       0.4953    1429.43921       0.5490       0.4954
   1429.42395       0.3671       0.5070    1429.42395       0.3671       0.5070
   1429.40869       0.3911       0.4593    1429.40869       0.3911       0.4593
   1429.39343       0.4221       0.5215    1429.39343       0.4220       0.5216
   1429.37817       0.4014       0.5858    1429.37817       0.4014       0.5859
   1429.36292       0.4495       0.4709    1429.36292       0.4494       0.4710
   1429.34766       0.3701       0.5262    1429.34766       0.3700       0.5263
   1429.33240       0.5215       0.5904    1429.33240       0.5214       0.5905
   1429.31714       0.4809       0.4562    1429.31714       0.4808       0.4563
   1429.30188       0.3953       0.4059    1429.30188       0.3952       0.4060
   1429.28662       0.4336       0.5130    1429.28662       0.4335       0.5130
   1429.27136       0.3685       0.5161    1429.27136       0.3684       0.5162
   1429.25610       0.3856       0.5361    1429.25610       0.3855       0.5362
   1429.24084       0.3994       0.5352    1429.24084       0.3994       0.5352
   1429.22559       0.4764       0.5677    1429.22559       0.4764       0.5678
   1429.21033       0.5645       0.4491    1429.21033       0.5644       0.4491
   1429.19507       0.4152       0.5303    1429.19507       0.4151       0.5304
   1429.17981       0.4303       0.5551    1429.17981       0.4302       0.5551
   1429.16455       0.4848       0.4526    1429.16455       0.4847       0.4527
   1429.14929       0.4888       0.4796    1429.14929       0.4887       0.4797
   1429.13403       0.4608       0.5008    1429.13403       0.4607       0.5009
   1429.11877       0.4403       0.3536    1429.11877       0.4402       0.3537
   1429.10352       0.4524       0.4577    1429.10352       0.4523       0.4578
   1429.08826       0.4292       0.4318    1429.08826       0.4291       0.4319
   1429.07300       0.4012       0.4939    1429.07300       0.4011       0.4940
   1429.05774       0.4160       0.5298    1429.05774       0.4160       0.5299
   1429.04248       0.5038       0.4828    1429.04248       0.5037       0.4828
   1429.02722       0.5181       0.4038    1429.02722       0.5180       0.4038
   1429.01196       0.5554       0.4489    1429.01196       0.5553       0.4489
   1428.99670       0.4486       0.4114    1428.99670       0.4485       0.4115
   1428.98145       0.5267       0.5282    1428.98145       0.5266       0.5283
   1428.96619       0.5311       0.4649    1428.96619       0.5310       0.4650
   1428.95093       0.5718       0.4696    1428.95093       0.5717       0.4697
   1428.93567       0.5087       0.5056    1428.93567       0.5086       0.5057
   1428.92041       0.5363       0.4583    1428.92041       0.5362       0.4583
   1428.90515       0.3748       0.5174    1428.90515       0.3747       0.5175
   1428.88989       0.4248       0.5067    1428.88989       0.4247       0.5068
   1428.87463       0.6403       0.4921    1428.87463       0.6402       0.4921
   1428.85938       0.5588       0.4079    1428.85938       0.5587       0.4080
   1428.84412       0.5338       0.4880    1428.84412       0.5337       0.4880
   1428.82886       0.4902       0.5338    1428.82886       0.4901       0.5339
   1428.81360       0.4222       0.5620    1428.81360       0.4221       0.5620
   1428.79834       0.4672       0.5209    1428.79834       0.4671       0.5209
   1428.78308       0.6149       0.4523    1428.78308       0.6148       0.4524
   1428.76782       0.5343       0.4674    1428.76782       0.5342       0.4675
   1428.75256       0.4773       0.5281    1428.75256       0.4772       0.5281
   1428.73730       0.4984       0.4508    1428.73730       0.4983       0.4508
   1428.72205       0.4775       0.4864    1428.72205       0.4774       0.4865
   1428.70679       0.4108       0.4865    1428.70679       0.4107       0.4866
   1428.69153       0.5356       0.5585    1428.69153       0.5355       0.5586
   1428.67627       0.4488       0.3991    1428.67627       0.4487       0.3992
   1428.66101       0.5134       0.5806    1428.66101       0.5133       0.5807
   1428.64575       0.5323       0.5635    1428.64575       0.5322       0.5636
   1428.63049       0.4770       0.4820    1428.63049       0.4769       0.4821
   1428.61523       0.4367       0.4958    1428.61523       0.4366       0.4958
   1428.59998       0.4616       0.4690    1428.59998       0.4615       0.4691
   1428.58472       0.5757       0.4778    1428.58472       0.5756       0.4778
   1428.56946       0.5441       0.4109    1428.56946       0.5440       0.4110
   1428.55420       0.5257       0.4393    1428.55420       0.5256       0.4394
   1428.53894       0.5282       0.5256    1428.53894       0.5281       0.5257
   1428.52368       0.5635       0.4973    1428.52368       0.5634       0.4974
   1428.50842       0.5644       0.5201    1428.50842       0.5643       0.5201
   1428.49316       0.5773       0.3868    1428.49316       0.5772       0.3868
   1428.47791       0.5453       0.4337    1428.47791       0.5452       0.4338
   1428.46265       0.4584       0.4971    1428.46265       0.4583       0.4972
   1428.44739       0.4732       0.4653    1428.44739       0.4731       0.4654
   1428.43213       0.5456       0.4617    1428.43213       0.5455       0.4617
   1428.41687       0.5799       0.5118    1428.41687       0.5798       0.5119
   1428.40161       0.5293       0.4725    1428.40161       0.5292       0.4726
   1428.38635       0.5233       0.4435    1428.38635       0.5232       0.4436
   1428.37109       0.5644       0.4840    1428.37109       0.5643       0.4841
   1428.35583       0.5917       0.4968    1428.35583       0.5916       0.4969
   1428.34058       0.5176       0.4573    1428.34058       0.5175       0.4574
   1428.32532       0.5252       0.4787    1428.32532       0.5251       0.4787
   1428.31006       0.5374       0.4293    1428.31006       0.5373       0.4294
   1428.29480       0.4354       0.5020    1428.29480       0.4353       0.5021
   1428.27954       0.4525       0.4353    1428.27954       0.4525       0.4354
   1428.26428       0.4959       0.4100    1428.26428       0.4958       0.4101
   1428.24902       0.5590       0.4658    1428.24902       0.5589       0.4658
   1428.23376       0.5065       0.4396    1428.23376       0.5064       0.4397
   1428.21851       0.4732       0.4883    1428.21851       0.4731       0.4884
   1428.20325       0.5510       0.4682    1428.20325       0.5509       0.4682
   1428.18799       0.5622       0.4282    1428.18799       0.5621       0.4282
   1428.17273       0.5197       0.4772    1428.17273       0.5197       0.4772
   1428.15747       0.5607       0.5114    1428.15747       0.5606       0.5115
   1428.14221       0.5321       0.4091    1428.14221       0.5320       0.4092
   1428.12695       0.6121       0.4591    1428.12695       0.6120       0.4592
   1428.11169       0.4372       0.3968    1428.11169       0.4371       0.3968
   1428.09644       0.5144       0.5060    1428.09644       0.5143       0.5060
   1428.08118       0.5079       0.4135    1428.08118       0.5078       0.4136
   1428.06592       0.5489       0.4996    1428.06592       0.5488       0.4996
   1428.05066       0.4750       0.3975    1428.05066       0.4749       0.3976
   1428.03540       0.5626       0.4148    1428.03540       0.5625       0.4148
   1428.02014       0.5347       0.4580    1428.02014       0.5346       0.4581
   1428.00488       0.5628       0.4292    1428.00488       0.5627       0.4292
   1427.98962       0.5613       0.3888    1427.98962       0.5612       0.3888
   1427.97437       0.5258       0.4761    1427.97437       0.5257       0.4761
   1427.95911       0.4963       0.5131    1427.95911       0.4962       0.5131
   1427.94385       0.5610       0.5033    1427.94385       0.5609       0.5034
   1427.92859       0.5777       0.4507    1427.92859       0.5776       0.4508
   1427.91333       0.5219       0.4032    1427.91333       0.5218       0.4032
   1427.89807       0.6029       0.4096    1427.89807       0.6028       0.4097
   1427.88281       0.6021       0.4745    1427.88281       0.6020       0.4745
   1427.86755       0.5105       0.4485    1427.86755       0.5104       0.4485
   1427.85229       0.5413       0.5168    1427.85229       0.5412       0.5169
   1427.83704       0.5844       0.3916    1427.83704       0.5843       0.3917
   1427.82178       0.4971       0.4832    1427.82178       0.4970       0.4832
   1427.80652       0.4518       0.4537    1427.80652       0.4517       0.4538
   1427.79126       0.4603       0.5432    1427.79126       0.4602       0.5433
   1427.77600       0.5351       0.4336    1427.77600       0.5350       0.4337
   1427.76074       0.5681       0.4914    1427.76074       0.5680       0.4914
   1427.74548       0.5307       0.4427    1427.74548       0.5306       0.4428
   1427.73022       0.5144       0.4704    1427.73022       0.5143       0.4704
   1427.71497       0.5839       0.4776    1427.71497       0.5838       0.4777
   1427.69971       0.5181       0.4858    1427.69971       0.5180       0.4859
   1427.68445       0.5811       0.4617    1427.68445       0.5810       0.4617
   1427.66919       0.5567       0.4974    1427.66919       0.5566       0.4975
   1427.65393       0.6039       0.4161    1427.65393       0.6038       0.4162
   1427.63867       0.5458       0.5022    1427.63867       0.5457       0.5022
   1427.62341       0.4978       0.4984    1427.62341       0.4977       0.4985
   1427.60815       0.4425       0.5052    1427.60815       0.4424       0.5053
   1427.59290       0.5415       0.4011    1427.59290       0.5414       0.4011
   1427.57764       0.5646       0.4857    1427.57764       0.5645       0.4857
   1427.56238       0.5029       0.4175    1427.56238       0.5028       0.4175
   1427.54712       0.5162       0.4822    1427.54712       0.5161       0.4823
   1427.53186       0.5325       0.4969    1427.53186       0.5324       0.4969
   1427.51660       0.5542       0.5041    1427.51660       0.5541       0.5042
   1427.50134       0.5141       0.4076    1427.50134       0.5140       0.4077
   1427.48608       0.5670       0.5090    1427.48608       0.5669       0.5091
   1427.47083       0.5783       0.4715    1427.47083       0.5782       0.4716
   1427.45557       0.5214       0.4723    1427.45557       0.5213       0.4723
   1427.44031       0.5156       0.4219    1427.44031       0.5155       0.4220
   1427.42505       0.5083       0.3743    1427.42505       0.5082       0.3744
   1427.40979       0.5916       0.4289    1427.40979       0.5915       0.4290
   1427.39453       0.5417       0.4244    1427.39453       0.5416       0.4245
   1427.37927       0.5879       0.4636    1427.37927       0.5878       0.4637
   1427.36401       0.5458       0.4542    1427.36401       0.5457       0.4542
   1427.34875       0.5411       0.3909    1427.34875       0.5410       0.3909
   1427.33350       0.5878       0.4710    1427.33350       0.5877       0.4711
   1427.31824       0.5563       0.4561    1427.31824       0.5562       0.4561
   1427.30298       0.5651       0.4769    1427.30298       0.5650       0.4769
   1427.28772       0.5832       0.4386    1427.28772       0.5831       0.4387
   1427.27246       0.6610       0.5043    1427.27246       0.6609       0.5044
   1427.25720       0.5774       0.5569    1427.25720       0.5773       0.5570
   1427.24194       0.6183       0.4604    1427.24194       0.6182       0.4605
   1427.22668       0.5716       0.4684    1427.22668       0.5715       0.4685
   1427.21143       0.5809       0.4684    1427.21143       0.5808       0.4685
   1427.19617       0.5486       0.4841    1427.19617       0.5485       0.4842
   1427.18091       0.5525       0.4711    1427.18091       0.5524       0.4712
   1427.16565       0.5125       0.4048    1427.16565       0.5124       0.4049
   1427.15039       0.4876       0.5172    1427.15039       0.4875       0.5173
   1427.13513       0.4969       0.4678    1427.13513       0.4968       0.4678
   1427.11987       0.4688       0.4013    1427.11987       0.4688       0.4013
   1427.10461       0.4235       0.4326    1427.10461       0.4234       0.4327
   1427.08936       0.5230       0.4730    1427.08936       0.5229       0.4730
   1427.07410       0.5551       0.5209    1427.07410       0.5550       0.5210
   1427.05884       0.5173       0.3950    1427.05884       0.5172       0.3951
   1427.04358       0.5252       0.3995    1427.04358       0.5251       0.3996
   1427.02832       0.5897       0.4720    1427.02832       0.5896       0.4721
   1427.01306       0.5923       0.5144    1427.01306       0.5921       0.5145
   1426.99780       0.5783       0.5319    1426.99780       0.5781       0.5320
   1426.98254       0.6246       0.5509    1426.98254       0.6245       0.5509
   1426.96729       0.5265       0.4371    1426.96729       0.5264       0.4372
   1426.95203       0.5469       0.4479    1426.95203       0.5468       0.4480
   1426.93677       0.4797       0.5574    1426.93677       0.4796       0.5575
   1426.92151       0.5783       0.5630    1426.92151       0.5782       0.5631
   1426.90625       0.5480       0.5072    1426.90625       0.5479       0.5073
   1426.89099       0.6263       0.5450    1426.89099       0.6262       0.5451
   1426.87573       0.6280       0.4917    1426.87573       0.6279       0.4918
   1426.86047       0.5749       0.5408    1426.86047       0.5748       0.5409
   1426.84521       0.5584       0.4844    1426.84521       0.5583       0.4844
   1426.82996       0.5950       0.5289    1426.82996       0.5949       0.5290
   1426.81470       0.5890       0.6385    1426.81470       0.5889       0.6386
   1426.79944       0.5715       0.5799    1426.79944       0.5714       0.5800
   1426.78418       0.6477       0.5095    1426.78418       0.6476       0.5096
   1426.76892       0.5842       0.5732    1426.76892       0.5840       0.5733
   1426.75366       0.5410       0.5082    1426.75366       0.5409       0.5083
   1426.73840       0.5682       0.4851    1426.73840       0.5680       0.4851
   1426.72314       0.5748       0.5384    1426.72314       0.5747       0.5385
   1426.70789       0.6076       0.6118    1426.70789       0.6074       0.6119
   1426.69263       0.5200       0.6213    1426.69263       0.5199       0.6214
   1426.67737       0.5690       0.5321    1426.67737       0.5689       0.5321
   1426.66211       0.6337       0.5689    1426.66211       0.6336       0.5690
   1426.64685       0.5616       0.5368    1426.64685       0.5615       0.5369
   1426.63159       0.5403       0.5668    1426.63159       0.5402       0.5669
   1426.61633       0.5206       0.5015    1426.61633       0.5205       0.5016
   1426.60107       0.5359       0.5739    1426.60107       0.5358       0.5740
