#     FILENAME=Skynet_58992_M31_30kpc_BC_44940_54548.A.onoff.cal.txt
#     BASENAME=Skynet_58992_M31_30kpc_BC_44940_54548
#      CONTROL=SKYNET
#     PROJCODE=Skynet_58992_M31_30kpc_BC_44940
#     DATAROOT=/raid/scratch/cyborg/SkynetData
#      DATADIR=/raid/scratch/cyborg
#     DATADIR2=/raid/scratch/cyborg/SkynetData/Skynet_58992_M31_30kpc_BC_44940
#     SCANNAME=2018_05_24_20
#     SRC_NAME=M31_30kpc_BC
#     OBSERVER=unioncollege_21317
#     DATE_OBS=2020-05-23T07:37:02.110
#        OBSID=44940
#      SCANNUM=54548
#          MJD=58992.3173855
#          UTC=27422
#     SCANTYPE=onoff
#     DATAMODE=HIRES
#     RECEIVER=Rx1_2
#      OBSFREQ=1395.0000
# Actual_FREQ1=1423.0000,
# Actual_FREQ2=1423.0000
#    LO1Tuning=6873.0000
#     RFFILTER=1355_1435
#        OBSBW=-15.6250
#     EFFBANDW=15.6250
#        NCHAN=1024
#    STARTCHAN=51
#     STOPCHAN=972
#         TINT=0.3000
#         TBIN=0.00026214
#       ACCLEN=2048 
#     DURATION=204.60
#     EXPOSURE=157.18
#        FOCUS=36.895
#       RA,DEC=00:35:27.11, 39:34:34.05
#      RA(deg)=7.49594
#     DEC(deg)=39.57616
#   WIDTH(deg)=2.0941x0.0352
#    AZIM(deg)=55.7976
#    ELEV(deg)=22.2730
#     COORDREF=RA_DEC_
#         HREF=8.7951
#         VREF=39.5763
#      RADESYS=FK5
#       OFFSYS=RADEC
#      EQUINOX=2000.00
#     IFATTENS=17.00, 1.00
#   BALANCELEV=1.200 
#   POWER_XLYR=[1.23, 1.33] 
#       VELDEF=RADI-OBS 
#     VELOCITY=0.000 
#         NPOL=2 
#      POLMODE=Linear 
#      POLTYPE=XXYY 
#      WARNING=None 
#     NOISECAL=HI 
#       PRECAL=2 
#      POSTCAL=2 
#     CRYOTEMP=296 
#      BOXTEMP=31 
#         TSYS=XX1:120.89, YY1:146.54
#         TSYS=XX2:120.89, YY2:146.62
#         TCAL=XX1:9.18, YY1:10.14
#         TCAL=XX2:9.18, YY2:10.14
# Calibrated spectra: Tsys*(ON-OFF)/OFF 
#                
#                
#Freq1(MHz)         XX1          YY1   Freq2(MHz)       XX2         YY2 
   1430.03430       0.9268       1.2543    1430.03430       0.9267       1.2550
   1430.01904       0.7383       1.6165    1430.01904       0.7383       1.6173
   1430.00378       0.6746       1.3974    1430.00378       0.6746       1.3981
   1429.98853       0.7547       1.7450    1429.98853       0.7547       1.7460
   1429.97327       0.7218       1.5870    1429.97327       0.7217       1.5879
   1429.95801       0.7430       1.5949    1429.95801       0.7430       1.5958
   1429.94275       1.1162       1.3493    1429.94275       1.1162       1.3501
   1429.92749       0.6778       1.4180    1429.92749       0.6778       1.4188
   1429.91223       0.8149       1.4842    1429.91223       0.8149       1.4850
   1429.89697       0.6960       1.5371    1429.89697       0.6960       1.5379
   1429.88171       0.6430       1.3687    1429.88171       0.6430       1.3694
   1429.86646       0.7510       1.3776    1429.86646       0.7510       1.3783
   1429.85120       1.1158       1.7254    1429.85120       1.1157       1.7264
   1429.83594       0.6486       1.6119    1429.83594       0.6486       1.6128
   1429.82068       0.7023       1.5728    1429.82068       0.7023       1.5737
   1429.80542       0.7656       1.5480    1429.80542       0.7656       1.5488
   1429.79016       0.9883       1.5133    1429.79016       0.9883       1.5141
   1429.77490       0.8138       1.5936    1429.77490       0.8138       1.5945
   1429.75964       0.4411       1.4937    1429.75964       0.4411       1.4945
   1429.74438       1.0503       1.6788    1429.74438       1.0503       1.6797
   1429.72913       0.9142       1.5350    1429.72913       0.9141       1.5358
   1429.71387       0.7970       1.4719    1429.71387       0.7969       1.4727
   1429.69861       0.7575       1.5896    1429.69861       0.7575       1.5905
   1429.68335       0.8530       1.5448    1429.68335       0.8530       1.5457
   1429.66809       0.4502       1.4361    1429.66809       0.4502       1.4368
   1429.65283       0.8055       1.3447    1429.65283       0.8054       1.3454
   1429.63757       0.6241       1.7150    1429.63757       0.6240       1.7160
   1429.62231       0.6160       1.7670    1429.62231       0.6160       1.7680
   1429.60706       0.7582       1.5225    1429.60706       0.7582       1.5234
   1429.59180       0.8255       1.6608    1429.59180       0.8254       1.6617
   1429.57654       0.6693       1.4930    1429.57654       0.6693       1.4938
   1429.56128       0.8244       1.7079    1429.56128       0.8244       1.7088
   1429.54602       0.8937       1.2168    1429.54602       0.8937       1.2175
   1429.53076       0.5250       1.5576    1429.53076       0.5250       1.5585
   1429.51550       0.5736       1.6683    1429.51550       0.5736       1.6692
   1429.50024       0.6338       1.3610    1429.50024       0.6338       1.3617
   1429.48499       0.3734       1.6267    1429.48499       0.3734       1.6276
   1429.46973       0.6158       1.3337    1429.46973       0.6158       1.3344
   1429.45447       0.4858       1.3952    1429.45447       0.4858       1.3960
   1429.43921       0.8905       1.4322    1429.43921       0.8905       1.4330
   1429.42395       0.7648       1.7214    1429.42395       0.7648       1.7223
   1429.40869       0.7902       1.5329    1429.40869       0.7902       1.5338
   1429.39343       0.8574       1.7406    1429.39343       0.8574       1.7416
   1429.37817       0.6585       1.8110    1429.37817       0.6585       1.8120
   1429.36292       0.7706       1.7031    1429.36292       0.7706       1.7040
   1429.34766       0.7456       1.9588    1429.34766       0.7455       1.9599
   1429.33240       0.4118       1.5537    1429.33240       0.4118       1.5546
   1429.31714       0.7398       1.6904    1429.31714       0.7397       1.6914
   1429.30188       0.3891       1.6051    1429.30188       0.3891       1.6060
   1429.28662       0.6101       1.4653    1429.28662       0.6101       1.4661
   1429.27136       0.5794       1.8045    1429.27136       0.5794       1.8055
   1429.25610       0.7241       1.7465    1429.25610       0.7240       1.7474
   1429.24084       0.7659       1.1917    1429.24084       0.7658       1.1923
   1429.22559       0.7509       1.5366    1429.22559       0.7509       1.5374
   1429.21033       0.6907       1.6220    1429.21033       0.6906       1.6228
   1429.19507       0.9529       2.1854    1429.19507       0.9529       2.1866
   1429.17981       0.4856       1.5714    1429.17981       0.4856       1.5723
   1429.16455       0.7633       1.5019    1429.16455       0.7633       1.5027
   1429.14929       0.7147       1.4868    1429.14929       0.7147       1.4876
   1429.13403       0.7191       1.4495    1429.13403       0.7191       1.4503
   1429.11877       0.9173       1.7596    1429.11877       0.9173       1.7605
   1429.10352       0.9448       1.5089    1429.10352       0.9448       1.5097
   1429.08826       0.9349       1.5812    1429.08826       0.9348       1.5820
   1429.07300       0.6986       1.6897    1429.07300       0.6985       1.6906
   1429.05774       0.6329       1.8011    1429.05774       0.6329       1.8021
   1429.04248       0.6088       1.5161    1429.04248       0.6088       1.5169
   1429.02722       0.7286       1.7845    1429.02722       0.7286       1.7855
   1429.01196       0.9204       1.8431    1429.01196       0.9203       1.8442
   1428.99670       0.6397       1.5976    1428.99670       0.6397       1.5984
   1428.98145       0.8715       1.6683    1428.98145       0.8715       1.6693
   1428.96619       0.4254       1.8176    1428.96619       0.4253       1.8186
   1428.95093       0.7565       1.1850    1428.95093       0.7565       1.1856
   1428.93567       0.9480       1.3982    1428.93567       0.9480       1.3990
   1428.92041       0.5345       2.0310    1428.92041       0.5345       2.0321
   1428.90515       0.3816       1.6657    1428.90515       0.3816       1.6666
   1428.88989       0.5720       1.8066    1428.88989       0.5720       1.8075
   1428.87463       0.7600       1.4198    1428.87463       0.7599       1.4206
   1428.85938       0.5618       1.9856    1428.85938       0.5617       1.9867
   1428.84412       0.6903       1.4645    1428.84412       0.6903       1.4653
   1428.82886       0.4680       1.6575    1428.82886       0.4680       1.6584
   1428.81360       0.5050       1.8568    1428.81360       0.5050       1.8578
   1428.79834       0.5919       1.4642    1428.79834       0.5919       1.4650
   1428.78308       0.5393       1.6171    1428.78308       0.5393       1.6180
   1428.76782       0.6790       1.5432    1428.76782       0.6790       1.5440
   1428.75256       0.7158       1.7450    1428.75256       0.7157       1.7459
   1428.73730       0.4351       1.4586    1428.73730       0.4351       1.4594
   1428.72205       0.7788       1.5719    1428.72205       0.7787       1.5727
   1428.70679       0.4913       1.5188    1428.70679       0.4913       1.5196
   1428.69153       0.4822       1.7140    1428.69153       0.4822       1.7149
   1428.67627       0.4485       1.2269    1428.67627       0.4485       1.2276
   1428.66101       0.7107       1.7928    1428.66101       0.7107       1.7938
   1428.64575       0.3863       1.4427    1428.64575       0.3863       1.4435
   1428.63049       0.6261       1.5934    1428.63049       0.6261       1.5943
   1428.61523       0.5650       1.8578    1428.61523       0.5650       1.8588
   1428.59998       0.6197       1.6771    1428.59998       0.6197       1.6781
   1428.58472       0.5982       1.4392    1428.58472       0.5982       1.4400
   1428.56946       0.6489       1.6838    1428.56946       0.6488       1.6848
   1428.55420       0.8392       1.4270    1428.55420       0.8392       1.4278
   1428.53894       0.5186       1.5746    1428.53894       0.5186       1.5754
   1428.52368       0.5827       1.7343    1428.52368       0.5826       1.7352
   1428.50842       0.6068       1.7001    1428.50842       0.6068       1.7010
   1428.49316       0.3670       1.8673    1428.49316       0.3669       1.8684
   1428.47791       0.4966       1.8744    1428.47791       0.4966       1.8755
   1428.46265       0.6714       1.5984    1428.46265       0.6714       1.5992
   1428.44739       0.7300       2.1043    1428.44739       0.7300       2.1055
   1428.43213       0.4894       1.9069    1428.43213       0.4894       1.9079
   1428.41687       0.5546       1.4372    1428.41687       0.5546       1.4380
   1428.40161       0.7410       1.8023    1428.40161       0.7409       1.8033
   1428.38635       0.6958       1.7582    1428.38635       0.6957       1.7591
   1428.37109       0.6479       1.9061    1428.37109       0.6479       1.9072
   1428.35583       0.3339       1.4887    1428.35583       0.3339       1.4895
   1428.34058       0.6134       1.4329    1428.34058       0.6134       1.4337
   1428.32532       0.6251       1.7093    1428.32532       0.6251       1.7102
   1428.31006       0.6931       1.8235    1428.31006       0.6931       1.8245
   1428.29480       0.5158       1.8347    1428.29480       0.5157       1.8357
   1428.27954       0.6571       1.3177    1428.27954       0.6571       1.3184
   1428.26428       0.7368       1.5970    1428.26428       0.7368       1.5979
   1428.24902       0.4217       1.5517    1428.24902       0.4217       1.5526
   1428.23376       1.0090       1.5032    1428.23376       1.0089       1.5040
   1428.21851       0.7167       1.4323    1428.21851       0.7167       1.4330
   1428.20325       0.4443       1.4039    1428.20325       0.4443       1.4046
   1428.18799       0.7236       1.5340    1428.18799       0.7235       1.5348
   1428.17273       0.5062       1.5336    1428.17273       0.5062       1.5344
   1428.15747       0.6156       1.6895    1428.15747       0.6156       1.6904
   1428.14221       0.7364       1.4675    1428.14221       0.7363       1.4683
   1428.12695       0.4373       1.8746    1428.12695       0.4372       1.8756
   1428.11169       0.3394       1.8688    1428.11169       0.3394       1.8698
   1428.09644       0.6505       1.6445    1428.09644       0.6505       1.6454
   1428.08118       0.7413       1.7237    1428.08118       0.7413       1.7246
   1428.06592       0.5526       1.5856    1428.06592       0.5526       1.5865
   1428.05066       0.4929       1.5662    1428.05066       0.4929       1.5671
   1428.03540       0.5359       1.6033    1428.03540       0.5358       1.6042
   1428.02014       0.7403       1.5049    1428.02014       0.7403       1.5057
   1428.00488       0.6288       1.6985    1428.00488       0.6287       1.6994
   1427.98962       0.5315       1.6808    1427.98962       0.5314       1.6817
   1427.97437       0.8001       1.3795    1427.97437       0.8001       1.3802
   1427.95911       0.7435       1.3988    1427.95911       0.7435       1.3996
   1427.94385       0.5424       1.3160    1427.94385       0.5424       1.3167
   1427.92859       0.5880       1.5629    1427.92859       0.5880       1.5637
   1427.91333       0.4861       1.5123    1427.91333       0.4860       1.5132
   1427.89807       0.7552       1.4080    1427.89807       0.7552       1.4087
   1427.88281       0.6212       1.5509    1427.88281       0.6212       1.5518
   1427.86755       0.6436       1.4243    1427.86755       0.6436       1.4251
   1427.85229       0.8073       1.6560    1427.85229       0.8072       1.6569
   1427.83704       0.7129       1.5154    1427.83704       0.7129       1.5162
   1427.82178       0.8782       1.4537    1427.82178       0.8781       1.4545
   1427.80652       0.7567       1.5617    1427.80652       0.7567       1.5625
   1427.79126       0.5803       1.4668    1427.79126       0.5803       1.4676
   1427.77600       0.7868       1.5385    1427.77600       0.7868       1.5394
   1427.76074       0.6252       1.5656    1427.76074       0.6252       1.5665
   1427.74548       0.3592       1.6847    1427.74548       0.3592       1.6856
   1427.73022       0.6699       1.3327    1427.73022       0.6699       1.3335
   1427.71497       0.5964       1.5341    1427.71497       0.5964       1.5349
   1427.69971       0.7808       1.7463    1427.69971       0.7808       1.7472
   1427.68445       0.7075       1.8032    1427.68445       0.7075       1.8041
   1427.66919       0.4487       1.2695    1427.66919       0.4487       1.2702
   1427.65393       0.7537       1.5675    1427.65393       0.7537       1.5684
   1427.63867       0.6547       1.6029    1427.63867       0.6546       1.6038
   1427.62341       0.5649       1.3998    1427.62341       0.5649       1.4006
   1427.60815       0.7334       1.5039    1427.60815       0.7333       1.5047
   1427.59290       0.7134       1.4247    1427.59290       0.7134       1.4255
   1427.57764       0.7564       1.6427    1427.57764       0.7564       1.6436
   1427.56238       0.5938       1.5583    1427.56238       0.5938       1.5592
   1427.54712       0.6635       1.3208    1427.54712       0.6635       1.3216
   1427.53186       0.5703       1.5742    1427.53186       0.5703       1.5751
   1427.51660       0.6461       1.2998    1427.51660       0.6461       1.3005
   1427.50134       0.6112       1.6414    1427.50134       0.6112       1.6423
   1427.48608       0.5089       1.4634    1427.48608       0.5088       1.4642
   1427.47083       0.6060       1.2279    1427.47083       0.6060       1.2286
   1427.45557       0.8499       1.4843    1427.45557       0.8499       1.4851
   1427.44031       0.8408       1.5291    1427.44031       0.8408       1.5300
   1427.42505       0.7935       1.7334    1427.42505       0.7934       1.7344
   1427.40979       0.7569       1.0207    1427.40979       0.7569       1.0213
   1427.39453       0.8102       1.5120    1427.39453       0.8102       1.5128
   1427.37927       0.6834       1.6161    1427.37927       0.6834       1.6170
   1427.36401       0.5214       1.4399    1427.36401       0.5214       1.4406
   1427.34875       0.6946       1.6181    1427.34875       0.6945       1.6190
   1427.33350       0.8430       1.6996    1427.33350       0.8430       1.7005
   1427.31824       0.9624       1.6092    1427.31824       0.9624       1.6101
   1427.30298       0.8497       1.4450    1427.30298       0.8496       1.4458
   1427.28772       0.6556       1.4723    1427.28772       0.6556       1.4731
   1427.27246       0.7662       1.3290    1427.27246       0.7662       1.3297
   1427.25720       0.6780       1.3344    1427.25720       0.6779       1.3352
   1427.24194       0.9835       1.4694    1427.24194       0.9835       1.4702
   1427.22668       0.7287       1.8180    1427.22668       0.7286       1.8190
   1427.21143       0.8859       1.4320    1427.21143       0.8858       1.4327
   1427.19617       0.6198       1.3240    1427.19617       0.6198       1.3247
   1427.18091       0.6320       1.3941    1427.18091       0.6320       1.3949
   1427.16565       0.8362       1.3625    1427.16565       0.8362       1.3633
   1427.15039       0.8045       1.5129    1427.15039       0.8045       1.5137
   1427.13513       0.7735       1.5977    1427.13513       0.7735       1.5986
   1427.11987       0.5728       1.4731    1427.11987       0.5728       1.4739
   1427.10461       0.7432       1.4431    1427.10461       0.7432       1.4439
   1427.08936       0.5332       1.1678    1427.08936       0.5332       1.1685
   1427.07410       0.8405       1.2868    1427.07410       0.8405       1.2875
   1427.05884       0.6511       1.4312    1427.05884       0.6511       1.4319
   1427.04358       0.7589       1.3186    1427.04358       0.7588       1.3193
   1427.02832       0.8209       1.3448    1427.02832       0.8209       1.3456
   1427.01306       0.7229       1.4950    1427.01306       0.7229       1.4958
   1426.99780       0.9506       1.2188    1426.99780       0.9506       1.2195
   1426.98254       0.6666       1.5769    1426.98254       0.6666       1.5777
   1426.96729       0.6346       1.4815    1426.96729       0.6346       1.4823
   1426.95203       0.6490       1.3562    1426.95203       0.6490       1.3569
   1426.93677       0.8024       1.5762    1426.93677       0.8023       1.5771
   1426.92151       0.9784       1.2375    1426.92151       0.9784       1.2381
   1426.90625       0.8716       1.3829    1426.90625       0.8716       1.3836
   1426.89099       0.7546       1.5762    1426.89099       0.7546       1.5770
   1426.87573       0.9061       1.5156    1426.87573       0.9061       1.5164
   1426.86047       0.7454       1.4105    1426.86047       0.7453       1.4112
   1426.84521       0.9808       1.2534    1426.84521       0.9808       1.2541
   1426.82996       0.8632       1.3696    1426.82996       0.8632       1.3703
   1426.81470       0.6757       1.3323    1426.81470       0.6757       1.3330
   1426.79944       0.9169       1.1865    1426.79944       0.9169       1.1871
   1426.78418       0.6325       1.1960    1426.78418       0.6325       1.1966
   1426.76892       0.6971       1.0977    1426.76892       0.6970       1.0983
   1426.75366       0.6446       1.2460    1426.75366       0.6446       1.2467
   1426.73840       0.6960       1.2970    1426.73840       0.6960       1.2977
   1426.72314       0.8393       1.1852    1426.72314       0.8392       1.1859
   1426.70789       0.8317       1.3487    1426.70789       0.8316       1.3494
   1426.69263       0.8536       1.2029    1426.69263       0.8536       1.2036
   1426.67737       0.7077       0.9512    1426.67737       0.7077       0.9517
   1426.66211       1.2919       1.5104    1426.66211       1.2918       1.5112
   1426.64685       0.7412       1.4856    1426.64685       0.7412       1.4864
   1426.63159       0.7798       1.2435    1426.63159       0.7798       1.2442
   1426.61633       0.9911       1.1460    1426.61633       0.9911       1.1466
   1426.60107       0.7689       1.2984    1426.60107       0.7689       1.2991
