#     FILENAME=Skynet_59002_M31_15kpcRadiusB_45048_54637.A.onoff.cal.txt
#     BASENAME=Skynet_59002_M31_15kpcRadiusB_45048_54637
#      CONTROL=SKYNET
#     PROJCODE=Skynet_59002_M31_15kpcRadiusB_45048
#     DATAROOT=/raid/scratch/cyborg/SkynetData
#      DATADIR=/raid/scratch/cyborg
#     DATADIR2=/raid/scratch/cyborg/SkynetData/Skynet_59002_M31_15kpcRadiusB_4
#     SCANNAME=2018_05_24_20
#     SRC_NAME=M31_15kpcRadiusB
#     OBSERVER=unioncollege_21317
#     DATE_OBS=2020-06-02T07:55:30.510
#        OBSID=45048
#      SCANNUM=54637
#          MJD=59002.3302142
#          UTC=28531
#     SCANTYPE=onoff
#     DATAMODE=HIRES
#     RECEIVER=Rx1_2
#      OBSFREQ=1395.0000
# Actual_FREQ1=1423.0000,
# Actual_FREQ2=1423.0000
#    LO1Tuning=6873.0000
#     RFFILTER=1355_1435
#        OBSBW=-15.6250
#     EFFBANDW=15.6250
#        NCHAN=1024
#    STARTCHAN=51
#     STOPCHAN=972
#         TINT=0.3000
#         TBIN=0.00419430
#       ACCLEN=2048 
#     DURATION=168.30
#     EXPOSURE=125.08
#        FOCUS=37.071
#       RA,DEC=00:39:24.13, 40:23:54.81
#      RA(deg)=8.46624
#     DEC(deg)=40.39817
#   WIDTH(deg)=2.0311x0.0224
#    AZIM(deg)=60.5557
#    ELEV(deg)=31.6569
#     COORDREF=RA_DEC_
#         HREF=9.7797
#         VREF=40.3982
#      RADESYS=FK5
#       OFFSYS=RADEC
#      EQUINOX=2000.00
#     IFATTENS=21.00, 5.00
#   BALANCELEV=1.200 
#   POWER_XLYR=[1.26, 1.05] 
#       VELDEF=RADI-OBS 
#     VELOCITY=0.000 
#         NPOL=2 
#      POLMODE=Linear 
#      POLTYPE=XXYY 
#      WARNING=None 
#     NOISECAL=HI 
#       PRECAL=2 
#      POSTCAL=2 
#     CRYOTEMP=14 
#      BOXTEMP=23 
#         TSYS=XX1:37.60, YY1:37.83
#         TSYS=XX2:37.60, YY2:37.82
#         TCAL=XX1:9.18, YY1:10.14
#         TCAL=XX2:9.18, YY2:10.14
# Calibrated spectra: Tsys*(ON-OFF)/OFF 
#                
#                
#Freq1(MHz)         XX1          YY1   Freq2(MHz)       XX2         YY2 
   1430.03430       0.3974       0.4720    1430.03430       0.3974       0.4719
   1430.01904       0.3638       0.4192    1430.01904       0.3638       0.4191
   1430.00378       0.3555       0.5449    1430.00378       0.3555       0.5448
   1429.98853       0.4458       0.4913    1429.98853       0.4457       0.4913
   1429.97327       0.3349       0.3640    1429.97327       0.3349       0.3640
   1429.95801       0.3684       0.4978    1429.95801       0.3684       0.4977
   1429.94275       0.4528       0.4782    1429.94275       0.4528       0.4781
   1429.92749       0.3374       0.4680    1429.92749       0.3374       0.4679
   1429.91223       0.3655       0.4961    1429.91223       0.3655       0.4961
   1429.89697       0.3248       0.5289    1429.89697       0.3248       0.5289
   1429.88171       0.2814       0.3935    1429.88171       0.2814       0.3934
   1429.86646       0.3923       0.5588    1429.86646       0.3923       0.5588
   1429.85120       0.3962       0.4569    1429.85120       0.3962       0.4568
   1429.83594       0.2785       0.4918    1429.83594       0.2785       0.4917
   1429.82068       0.3306       0.4700    1429.82068       0.3306       0.4700
   1429.80542       0.4241       0.5605    1429.80542       0.4241       0.5604
   1429.79016       0.3862       0.3303    1429.79016       0.3862       0.3302
   1429.77490       0.4571       0.4809    1429.77490       0.4571       0.4809
   1429.75964       0.4222       0.5705    1429.75964       0.4222       0.5704
   1429.74438       0.3306       0.5655    1429.74438       0.3306       0.5654
   1429.72913       0.3048       0.5437    1429.72913       0.3048       0.5436
   1429.71387       0.3314       0.5302    1429.71387       0.3314       0.5301
   1429.69861       0.4146       0.4930    1429.69861       0.4146       0.4929
   1429.68335       0.3220       0.4512    1429.68335       0.3220       0.4511
   1429.66809       0.2862       0.5312    1429.66809       0.2862       0.5312
   1429.65283       0.3124       0.4674    1429.65283       0.3124       0.4673
   1429.63757       0.3473       0.4950    1429.63757       0.3473       0.4949
   1429.62231       0.3708       0.4838    1429.62231       0.3708       0.4838
   1429.60706       0.3780       0.4730    1429.60706       0.3780       0.4729
   1429.59180       0.4099       0.5655    1429.59180       0.4099       0.5655
   1429.57654       0.3599       0.5101    1429.57654       0.3599       0.5100
   1429.56128       0.3036       0.5016    1429.56128       0.3036       0.5016
   1429.54602       0.3353       0.6151    1429.54602       0.3353       0.6151
   1429.53076       0.2848       0.4517    1429.53076       0.2848       0.4516
   1429.51550       0.3517       0.4767    1429.51550       0.3517       0.4766
   1429.50024       0.4117       0.5287    1429.50024       0.4117       0.5287
   1429.48499       0.3501       0.5359    1429.48499       0.3501       0.5358
   1429.46973       0.3472       0.4974    1429.46973       0.3472       0.4974
   1429.45447       0.3234       0.5653    1429.45447       0.3234       0.5653
   1429.43921       0.3123       0.5307    1429.43921       0.3123       0.5307
   1429.42395       0.4604       0.4758    1429.42395       0.4604       0.4758
   1429.40869       0.4248       0.5183    1429.40869       0.4248       0.5182
   1429.39343       0.3781       0.5791    1429.39343       0.3781       0.5790
   1429.37817       0.4492       0.3964    1429.37817       0.4492       0.3964
   1429.36292       0.4518       0.4574    1429.36292       0.4518       0.4573
   1429.34766       0.3291       0.4254    1429.34766       0.3291       0.4254
   1429.33240       0.3481       0.5939    1429.33240       0.3481       0.5939
   1429.31714       0.4166       0.6063    1429.31714       0.4166       0.6063
   1429.30188       0.4719       0.4533    1429.30188       0.4719       0.4532
   1429.28662       0.4368       0.4321    1429.28662       0.4368       0.4320
   1429.27136       0.3991       0.5676    1429.27136       0.3991       0.5675
   1429.25610       0.4819       0.4849    1429.25610       0.4819       0.4849
   1429.24084       0.4518       0.5314    1429.24084       0.4518       0.5314
   1429.22559       0.3374       0.4778    1429.22559       0.3374       0.4777
   1429.21033       0.3885       0.4876    1429.21033       0.3885       0.4875
   1429.19507       0.2882       0.5757    1429.19507       0.2882       0.5756
   1429.17981       0.2864       0.5809    1429.17981       0.2864       0.5809
   1429.16455       0.3792       0.5353    1429.16455       0.3792       0.5353
   1429.14929       0.4617       0.5003    1429.14929       0.4617       0.5002
   1429.13403       0.4877       0.4477    1429.13403       0.4877       0.4476
   1429.11877       0.4689       0.5891    1429.11877       0.4689       0.5891
   1429.10352       0.4003       0.5718    1429.10352       0.4003       0.5717
   1429.08826       0.4330       0.6166    1429.08826       0.4330       0.6165
   1429.07300       0.3733       0.4802    1429.07300       0.3733       0.4801
   1429.05774       0.4627       0.5761    1429.05774       0.4627       0.5760
   1429.04248       0.4399       0.6051    1429.04248       0.4399       0.6050
   1429.02722       0.4278       0.5987    1429.02722       0.4278       0.5986
   1429.01196       0.3493       0.4810    1429.01196       0.3493       0.4810
   1428.99670       0.4916       0.4287    1428.99670       0.4916       0.4287
   1428.98145       0.4673       0.5210    1428.98145       0.4673       0.5209
   1428.96619       0.4778       0.5056    1428.96619       0.4778       0.5056
   1428.95093       0.4206       0.5816    1428.95093       0.4206       0.5815
   1428.93567       0.4848       0.5964    1428.93567       0.4848       0.5963
   1428.92041       0.4650       0.6243    1428.92041       0.4650       0.6242
   1428.90515       0.4710       0.5405    1428.90515       0.4710       0.5404
   1428.88989       0.4424       0.5340    1428.88989       0.4424       0.5339
   1428.87463       0.4285       0.5094    1428.87463       0.4284       0.5093
   1428.85938       0.4717       0.5570    1428.85938       0.4717       0.5569
   1428.84412       0.4151       0.4770    1428.84412       0.4151       0.4769
   1428.82886       0.3560       0.6207    1428.82886       0.3560       0.6206
   1428.81360       0.5244       0.5390    1428.81360       0.5244       0.5390
   1428.79834       0.5255       0.5790    1428.79834       0.5255       0.5789
   1428.78308       0.4902       0.5053    1428.78308       0.4902       0.5053
   1428.76782       0.5248       0.4768    1428.76782       0.5248       0.4767
   1428.75256       0.4413       0.5640    1428.75256       0.4413       0.5639
   1428.73730       0.5166       0.4572    1428.73730       0.5166       0.4572
   1428.72205       0.5171       0.6695    1428.72205       0.5171       0.6694
   1428.70679       0.4220       0.5028    1428.70679       0.4220       0.5028
   1428.69153       0.4910       0.4824    1428.69153       0.4910       0.4823
   1428.67627       0.4424       0.5102    1428.67627       0.4424       0.5101
   1428.66101       0.5153       0.4647    1428.66101       0.5153       0.4646
   1428.64575       0.5871       0.5221    1428.64575       0.5871       0.5221
   1428.63049       0.4609       0.5522    1428.63049       0.4609       0.5522
   1428.61523       0.4845       0.5480    1428.61523       0.4845       0.5480
   1428.59998       0.6432       0.5145    1428.59998       0.6432       0.5144
   1428.58472       0.5570       0.4790    1428.58472       0.5570       0.4789
   1428.56946       0.4840       0.5461    1428.56946       0.4840       0.5461
   1428.55420       0.6270       0.4482    1428.55420       0.6270       0.4482
   1428.53894       0.5990       0.4580    1428.53894       0.5990       0.4579
   1428.52368       0.5880       0.5146    1428.52368       0.5880       0.5145
   1428.50842       0.4993       0.4748    1428.50842       0.4993       0.4748
   1428.49316       0.5261       0.5244    1428.49316       0.5261       0.5244
   1428.47791       0.4926       0.5357    1428.47791       0.4926       0.5357
   1428.46265       0.6046       0.4855    1428.46265       0.6046       0.4855
   1428.44739       0.5133       0.5246    1428.44739       0.5132       0.5245
   1428.43213       0.4651       0.5126    1428.43213       0.4651       0.5126
   1428.41687       0.4811       0.4753    1428.41687       0.4811       0.4753
   1428.40161       0.4947       0.5013    1428.40161       0.4947       0.5012
   1428.38635       0.5677       0.5050    1428.38635       0.5677       0.5049
   1428.37109       0.6098       0.5511    1428.37109       0.6098       0.5510
   1428.35583       0.5702       0.5998    1428.35583       0.5702       0.5997
   1428.34058       0.6438       0.4095    1428.34058       0.6438       0.4095
   1428.32532       0.5545       0.4022    1428.32532       0.5545       0.4021
   1428.31006       0.5099       0.5415    1428.31006       0.5099       0.5415
   1428.29480       0.5210       0.5737    1428.29480       0.5210       0.5736
   1428.27954       0.5361       0.5593    1428.27954       0.5361       0.5592
   1428.26428       0.4911       0.5145    1428.26428       0.4911       0.5145
   1428.24902       0.5813       0.5398    1428.24902       0.5813       0.5397
   1428.23376       0.5892       0.5382    1428.23376       0.5892       0.5382
   1428.21851       0.6259       0.5913    1428.21851       0.6259       0.5912
   1428.20325       0.5620       0.5530    1428.20325       0.5620       0.5530
   1428.18799       0.5509       0.5776    1428.18799       0.5509       0.5775
   1428.17273       0.6401       0.5432    1428.17273       0.6401       0.5432
   1428.15747       0.5790       0.5735    1428.15747       0.5790       0.5735
   1428.14221       0.5454       0.5383    1428.14221       0.5454       0.5382
   1428.12695       0.6463       0.5555    1428.12695       0.6463       0.5554
   1428.11169       0.5227       0.5806    1428.11169       0.5227       0.5805
   1428.09644       0.6622       0.6431    1428.09644       0.6622       0.6430
   1428.08118       0.5282       0.5982    1428.08118       0.5282       0.5981
   1428.06592       0.5396       0.6047    1428.06592       0.5396       0.6046
   1428.05066       0.6041       0.5883    1428.05066       0.6041       0.5882
   1428.03540       0.5909       0.6035    1428.03540       0.5909       0.6034
   1428.02014       0.5913       0.5583    1428.02014       0.5913       0.5583
   1428.00488       0.6194       0.5833    1428.00488       0.6194       0.5832
   1427.98962       0.5880       0.5584    1427.98962       0.5880       0.5583
   1427.97437       0.5606       0.5046    1427.97437       0.5606       0.5046
   1427.95911       0.5369       0.5258    1427.95911       0.5369       0.5258
   1427.94385       0.5301       0.6251    1427.94385       0.5301       0.6250
   1427.92859       0.5887       0.6651    1427.92859       0.5887       0.6650
   1427.91333       0.5317       0.5904    1427.91333       0.5317       0.5903
   1427.89807       0.4846       0.6143    1427.89807       0.4846       0.6142
   1427.88281       0.5623       0.6436    1427.88281       0.5623       0.6436
   1427.86755       0.5818       0.5664    1427.86755       0.5818       0.5663
   1427.85229       0.6319       0.5832    1427.85229       0.6319       0.5831
   1427.83704       0.5730       0.6593    1427.83704       0.5730       0.6592
   1427.82178       0.6731       0.5259    1427.82178       0.6730       0.5259
   1427.80652       0.5957       0.5831    1427.80652       0.5957       0.5830
   1427.79126       0.6119       0.5351    1427.79126       0.6119       0.5350
   1427.77600       0.6068       0.5549    1427.77600       0.6068       0.5548
   1427.76074       0.5586       0.5042    1427.76074       0.5586       0.5041
   1427.74548       0.6389       0.5196    1427.74548       0.6389       0.5196
   1427.73022       0.5325       0.5871    1427.73022       0.5325       0.5871
   1427.71497       0.5031       0.5570    1427.71497       0.5031       0.5570
   1427.69971       0.6008       0.5919    1427.69971       0.6008       0.5919
   1427.68445       0.5315       0.6398    1427.68445       0.5315       0.6398
   1427.66919       0.6161       0.6158    1427.66919       0.6161       0.6157
   1427.65393       0.5858       0.5553    1427.65393       0.5858       0.5552
   1427.63867       0.6364       0.5955    1427.63867       0.6364       0.5954
   1427.62341       0.5938       0.6611    1427.62341       0.5938       0.6611
   1427.60815       0.5393       0.5892    1427.60815       0.5393       0.5891
   1427.59290       0.6043       0.6061    1427.59290       0.6043       0.6060
   1427.57764       0.5721       0.5396    1427.57764       0.5721       0.5395
   1427.56238       0.6001       0.6433    1427.56238       0.6001       0.6432
   1427.54712       0.6502       0.7054    1427.54712       0.6502       0.7053
   1427.53186       0.5585       0.6948    1427.53186       0.5585       0.6947
   1427.51660       0.6079       0.5827    1427.51660       0.6079       0.5826
   1427.50134       0.6166       0.6811    1427.50134       0.6166       0.6810
   1427.48608       0.6341       0.6402    1427.48608       0.6341       0.6401
   1427.47083       0.5618       0.6326    1427.47083       0.5618       0.6326
   1427.45557       0.6755       0.6467    1427.45557       0.6755       0.6466
   1427.44031       0.6712       0.6389    1427.44031       0.6712       0.6388
   1427.42505       0.5902       0.5709    1427.42505       0.5902       0.5708
   1427.40979       0.5436       0.5317    1427.40979       0.5436       0.5316
   1427.39453       0.5997       0.6309    1427.39453       0.5997       0.6309
   1427.37927       0.6165       0.6581    1427.37927       0.6165       0.6580
   1427.36401       0.5630       0.6184    1427.36401       0.5630       0.6183
   1427.34875       0.6830       0.6078    1427.34875       0.6830       0.6078
   1427.33350       0.6339       0.6544    1427.33350       0.6339       0.6544
   1427.31824       0.6172       0.5579    1427.31824       0.6172       0.5579
   1427.30298       0.5987       0.6399    1427.30298       0.5987       0.6398
   1427.28772       0.5868       0.6860    1427.28772       0.5868       0.6859
   1427.27246       0.6279       0.6781    1427.27246       0.6279       0.6780
   1427.25720       0.6643       0.6587    1427.25720       0.6643       0.6586
   1427.24194       0.6581       0.6400    1427.24194       0.6581       0.6399
   1427.22668       0.6647       0.6876    1427.22668       0.6647       0.6876
   1427.21143       0.6488       0.6796    1427.21143       0.6488       0.6795
   1427.19617       0.5838       0.6744    1427.19617       0.5838       0.6743
   1427.18091       0.6043       0.6689    1427.18091       0.6043       0.6688
   1427.16565       0.6207       0.6526    1427.16565       0.6207       0.6525
   1427.15039       0.6060       0.6200    1427.15039       0.6060       0.6199
   1427.13513       0.6011       0.6240    1427.13513       0.6011       0.6240
   1427.11987       0.6557       0.6041    1427.11987       0.6557       0.6041
   1427.10461       0.6134       0.5842    1427.10461       0.6134       0.5842
   1427.08936       0.6920       0.6600    1427.08936       0.6920       0.6600
   1427.07410       0.5295       0.6543    1427.07410       0.5295       0.6543
   1427.05884       0.5785       0.6148    1427.05884       0.5785       0.6148
   1427.04358       0.6856       0.6266    1427.04358       0.6856       0.6265
   1427.02832       0.6727       0.5357    1427.02832       0.6727       0.5356
   1427.01306       0.6394       0.6819    1427.01306       0.6394       0.6818
   1426.99780       0.6356       0.5878    1426.99780       0.6356       0.5878
   1426.98254       0.6858       0.6457    1426.98254       0.6858       0.6456
   1426.96729       0.5913       0.5916    1426.96729       0.5913       0.5915
   1426.95203       0.6070       0.6286    1426.95203       0.6070       0.6286
   1426.93677       0.6831       0.6810    1426.93677       0.6831       0.6809
   1426.92151       0.6211       0.6503    1426.92151       0.6211       0.6502
   1426.90625       0.6273       0.7209    1426.90625       0.6273       0.7208
   1426.89099       0.5976       0.6686    1426.89099       0.5976       0.6685
   1426.87573       0.6716       0.5569    1426.87573       0.6716       0.5568
   1426.86047       0.6356       0.6851    1426.86047       0.6356       0.6850
   1426.84521       0.6368       0.7046    1426.84521       0.6368       0.7046
   1426.82996       0.6361       0.6383    1426.82996       0.6361       0.6382
   1426.81470       0.5714       0.5628    1426.81470       0.5714       0.5627
   1426.79944       0.6352       0.6512    1426.79944       0.6352       0.6511
   1426.78418       0.5995       0.6306    1426.78418       0.5995       0.6305
   1426.76892       0.6288       0.6341    1426.76892       0.6288       0.6340
   1426.75366       0.6380       0.5986    1426.75366       0.6380       0.5985
   1426.73840       0.5560       0.5493    1426.73840       0.5560       0.5492
   1426.72314       0.5615       0.5691    1426.72314       0.5615       0.5690
   1426.70789       0.6167       0.5986    1426.70789       0.6167       0.5985
   1426.69263       0.5281       0.6395    1426.69263       0.5281       0.6394
   1426.67737       0.6231       0.6953    1426.67737       0.6230       0.6952
   1426.66211       0.6262       0.6880    1426.66211       0.6262       0.6879
   1426.64685       0.6062       0.6762    1426.64685       0.6062       0.6761
   1426.63159       0.5179       0.5602    1426.63159       0.5179       0.5601
   1426.61633       0.6272       0.7584    1426.61633       0.6272       0.7583
   1426.60107       0.6057       0.6477    1426.60107       0.6057       0.6476
