#     FILENAME=Skynet_59284_M31_5kpc_MAtkinson_52424_1408.A.onoff.cal.txt
#     BASENAME=Skynet_59284_M31_5kpc_MAtkinson_52424_1408
#      CONTROL=SKYNET
#     PROJCODE=Skynet_59284_M31_5kpc_MAtkinson_52424
#     DATAROOT=/raid/scratch/cyborg/SkynetData
#      DATADIR=/raid/scratch/cyborg
#     DATADIR2=/raid/scratch/cyborg/SkynetData/Skynet_59284_M31_5kpc_MAtkinson
#     SCANNAME=2019_06_26_10
#     SRC_NAME=M31_5kpc_MAtkinson
#     OBSERVER=unioncollege_21317
#     DATE_OBS=2021-03-11T12:44:59.260
#        OBSID=52424
#      SCANNUM=1408
#          MJD=59284.5312414
#          UTC=45899
#     SCANTYPE=onoff
#     DATAMODE=HIRES
#     RECEIVER=Rx1_2
#      OBSFREQ=1395.0000
# Actual_FREQ1=1420.4000,
# Actual_FREQ2=1420.4000
#    LO1Tuning=6870.4000
#     RFFILTER=1355_1435
#        OBSBW=-15.6250
#     EFFBANDW=15.6250
#        NCHAN=1024
#    STARTCHAN=51
#     STOPCHAN=972
#         TINT=0.3000
#         TBIN=0.00419430
#       ACCLEN=2048 
#     DURATION=166.80
#     EXPOSURE=125.08
#        FOCUS=37.071
#       RA,DEC=00:41:49.84, 40:59:36.02
#      RA(deg)=9.05646
#     DEC(deg)=40.99308
#   WIDTH(deg)=2.0919x0.0283
#    AZIM(deg)=55.9036
#    ELEV(deg)=25.1927
#     COORDREF=RA_DEC_
#         HREF=10.3863
#         VREF=40.9933
#      RADESYS=FK5
#       OFFSYS=RADEC
#      EQUINOX=2000.00
#     IFATTENS=21.00, 14.00
#   BALANCELEV=1.200 
#   POWER_XLYR=[1.09, 1.16] 
#       VELDEF=RADI-OBS 
#     VELOCITY=0.000 
#         NPOL=2 
#      POLMODE=Linear 
#      POLTYPE=XXYY 
#      WARNING=None 
#     NOISECAL=HI 
#       PRECAL=2 
#      POSTCAL=2 
#     CRYOTEMP=15 
#      BOXTEMP=26 
#         TSYS=XX1:33.56, YY1:40.94
#         TSYS=XX2:33.56, YY2:40.93
#         TCAL=XX1:9.17, YY1:10.07
#         TCAL=XX2:9.17, YY2:10.07
# Calibrated spectra: Tsys*(ON-OFF)/OFF 
#                
#                
#Freq1(MHz)         XX1          YY1   Freq2(MHz)       XX2         YY2 
   1427.43430       0.7525       0.6420    1427.43430       0.7525       0.6420
   1427.41904       0.7784       0.6166    1427.41904       0.7784       0.6166
   1427.40378       0.6990       0.6443    1427.40378       0.6990       0.6442
   1427.38853       0.7519       0.6365    1427.38853       0.7519       0.6365
   1427.37327       0.7730       0.4956    1427.37327       0.7730       0.4956
   1427.35801       0.8050       0.5585    1427.35801       0.8050       0.5584
   1427.34275       0.7103       0.5719    1427.34275       0.7103       0.5719
   1427.32749       0.7712       0.6263    1427.32749       0.7712       0.6263
   1427.31223       0.6899       0.6691    1427.31223       0.6899       0.6691
   1427.29697       0.7218       0.6091    1427.29697       0.7218       0.6090
   1427.28171       0.7248       0.6935    1427.28171       0.7248       0.6935
   1427.26646       0.7739       0.6450    1427.26646       0.7739       0.6450
   1427.25120       0.7142       0.7651    1427.25120       0.7142       0.7650
   1427.23594       0.7649       0.7695    1427.23594       0.7649       0.7695
   1427.22068       0.8549       0.6797    1427.22068       0.8549       0.6797
   1427.20542       0.7095       0.6287    1427.20542       0.7095       0.6286
   1427.19016       0.6352       0.6240    1427.19016       0.6352       0.6240
   1427.17490       0.7180       0.6269    1427.17490       0.7180       0.6269
   1427.15964       0.7408       0.6819    1427.15964       0.7408       0.6819
   1427.14438       0.8312       0.5950    1427.14438       0.8312       0.5950
   1427.12913       0.6852       0.6974    1427.12913       0.6851       0.6974
   1427.11387       0.6706       0.6703    1427.11387       0.6706       0.6702
   1427.09861       0.8016       0.6380    1427.09861       0.8016       0.6379
   1427.08335       0.7094       0.5807    1427.08335       0.7094       0.5807
   1427.06809       0.6871       0.6356    1427.06809       0.6871       0.6355
   1427.05283       0.6977       0.6937    1427.05283       0.6977       0.6936
   1427.03757       0.6963       0.6828    1427.03757       0.6963       0.6827
   1427.02231       0.6503       0.6504    1427.02231       0.6502       0.6504
   1427.00706       0.7185       0.6170    1427.00706       0.7185       0.6170
   1426.99180       0.7499       0.5619    1426.99180       0.7499       0.5618
   1426.97654       0.7735       0.6542    1426.97654       0.7735       0.6541
   1426.96128       0.7828       0.6472    1426.96128       0.7828       0.6472
   1426.94602       0.6705       0.6446    1426.94602       0.6705       0.6445
   1426.93076       0.7006       0.6906    1426.93076       0.7006       0.6905
   1426.91550       0.7932       0.6246    1426.91550       0.7932       0.6245
   1426.90024       0.7508       0.5619    1426.90024       0.7508       0.5619
   1426.88499       0.7323       0.5488    1426.88499       0.7323       0.5487
   1426.86973       0.7719       0.5666    1426.86973       0.7719       0.5666
   1426.85447       0.7737       0.5791    1426.85447       0.7737       0.5791
   1426.83921       0.7895       0.6296    1426.83921       0.7895       0.6295
   1426.82395       0.7527       0.7176    1426.82395       0.7526       0.7176
   1426.80869       0.7255       0.5948    1426.80869       0.7255       0.5948
   1426.79343       0.7777       0.6206    1426.79343       0.7777       0.6206
   1426.77817       0.8337       0.5945    1426.77817       0.8337       0.5945
   1426.76292       0.6497       0.7131    1426.76292       0.6497       0.7131
   1426.74766       0.7616       0.5500    1426.74766       0.7616       0.5500
   1426.73240       0.7490       0.5683    1426.73240       0.7490       0.5683
   1426.71714       0.6785       0.7099    1426.71714       0.6785       0.7098
   1426.70188       0.7197       0.5925    1426.70188       0.7197       0.5924
   1426.68662       0.8209       0.5572    1426.68662       0.8209       0.5572
   1426.67136       0.7175       0.5955    1426.67136       0.7175       0.5954
   1426.65610       0.7976       0.6205    1426.65610       0.7976       0.6205
   1426.64084       0.6865       0.7185    1426.64084       0.6865       0.7184
   1426.62559       0.7347       0.4591    1426.62559       0.7347       0.4591
   1426.61033       0.7534       0.6940    1426.61033       0.7534       0.6939
   1426.59507       0.6821       0.6445    1426.59507       0.6821       0.6444
   1426.57981       0.7711       0.6481    1426.57981       0.7711       0.6481
   1426.56455       0.6216       0.5461    1426.56455       0.6216       0.5460
   1426.54929       0.7508       0.6137    1426.54929       0.7507       0.6136
   1426.53403       0.8743       0.5781    1426.53403       0.8742       0.5781
   1426.51877       0.7102       0.5117    1426.51877       0.7102       0.5117
   1426.50352       0.8568       0.6385    1426.50352       0.8568       0.6384
   1426.48826       0.8114       0.6087    1426.48826       0.8114       0.6086
   1426.47300       0.8374       0.6179    1426.47300       0.8374       0.6178
   1426.45774       0.7607       0.6329    1426.45774       0.7607       0.6329
   1426.44248       0.7816       0.6121    1426.44248       0.7816       0.6121
   1426.42722       0.8001       0.6042    1426.42722       0.8001       0.6042
   1426.41196       0.8870       0.6592    1426.41196       0.8870       0.6592
   1426.39670       0.7283       0.7269    1426.39670       0.7283       0.7268
   1426.38145       0.8169       0.7452    1426.38145       0.8169       0.7451
   1426.36619       0.7507       0.6221    1426.36619       0.7507       0.6221
   1426.35093       0.7526       0.6193    1426.35093       0.7526       0.6193
   1426.33567       0.7397       0.5987    1426.33567       0.7397       0.5987
   1426.32041       0.7192       0.6556    1426.32041       0.7192       0.6556
   1426.30515       0.7614       0.5862    1426.30515       0.7614       0.5861
   1426.28989       0.8046       0.5626    1426.28989       0.8046       0.5625
   1426.27463       0.6700       0.6272    1426.27463       0.6700       0.6271
   1426.25937       0.7391       0.6682    1426.25937       0.7391       0.6681
   1426.24412       0.8583       0.6249    1426.24412       0.8582       0.6248
   1426.22886       0.7002       0.6055    1426.22886       0.7002       0.6054
   1426.21360       0.7304       0.4820    1426.21360       0.7304       0.4819
   1426.19834       0.6859       0.6459    1426.19834       0.6859       0.6459
   1426.18308       0.7735       0.7323    1426.18308       0.7735       0.7322
   1426.16782       0.8035       0.6011    1426.16782       0.8034       0.6010
   1426.15256       0.8262       0.6695    1426.15256       0.8262       0.6694
   1426.13730       0.6523       0.6983    1426.13730       0.6522       0.6982
   1426.12205       0.7820       0.6931    1426.12205       0.7820       0.6930
   1426.10679       0.6832       0.6061    1426.10679       0.6832       0.6061
   1426.09153       0.8233       0.6138    1426.09153       0.8233       0.6138
   1426.07627       0.7563       0.7482    1426.07627       0.7563       0.7482
   1426.06101       0.7838       0.6487    1426.06101       0.7838       0.6486
   1426.04575       0.7043       0.6949    1426.04575       0.7043       0.6949
   1426.03049       0.7734       0.6272    1426.03049       0.7734       0.6271
   1426.01523       0.7984       0.6027    1426.01523       0.7984       0.6026
   1425.99998       0.7274       0.7291    1425.99998       0.7274       0.7290
   1425.98472       0.7357       0.6454    1425.98472       0.7357       0.6454
   1425.96946       0.7410       0.5130    1425.96946       0.7409       0.5129
   1425.95420       0.8193       0.6991    1425.95420       0.8193       0.6990
   1425.93894       0.7609       0.6953    1425.93894       0.7608       0.6953
   1425.92368       0.7847       0.6285    1425.92368       0.7847       0.6284
   1425.90842       0.7122       0.5549    1425.90842       0.7122       0.5549
   1425.89316       0.8139       0.6024    1425.89316       0.8139       0.6024
   1425.87791       0.8358       0.6742    1425.87791       0.8358       0.6741
   1425.86265       0.8526       0.6546    1425.86265       0.8526       0.6545
   1425.84739       0.6716       0.7123    1425.84739       0.6716       0.7123
   1425.83213       0.8938       0.7017    1425.83213       0.8938       0.7017
   1425.81687       0.7433       0.6110    1425.81687       0.7433       0.6109
   1425.80161       0.7873       0.6093    1425.80161       0.7873       0.6093
   1425.78635       0.7982       0.5990    1425.78635       0.7982       0.5990
   1425.77109       0.8343       0.5608    1425.77109       0.8343       0.5607
   1425.75583       0.8368       0.5923    1425.75583       0.8368       0.5923
   1425.74058       0.7244       0.6371    1425.74058       0.7244       0.6371
   1425.72532       0.8187       0.6963    1425.72532       0.8186       0.6963
   1425.71006       0.8114       0.5214    1425.71006       0.8114       0.5214
   1425.69480       0.7623       0.6912    1425.69480       0.7623       0.6911
   1425.67954       0.8067       0.6548    1425.67954       0.8067       0.6547
   1425.66428       0.8268       0.6643    1425.66428       0.8268       0.6642
   1425.64902       0.8781       0.5801    1425.64902       0.8781       0.5800
   1425.63376       0.8355       0.6027    1425.63376       0.8355       0.6027
   1425.61851       0.7486       0.6540    1425.61851       0.7486       0.6540
   1425.60325       0.7476       0.7024    1425.60325       0.7476       0.7023
   1425.58799       0.8038       0.6216    1425.58799       0.8038       0.6216
   1425.57273       0.8078       0.5961    1425.57273       0.8078       0.5960
   1425.55747       0.8391       0.5547    1425.55747       0.8391       0.5547
   1425.54221       0.7081       0.5698    1425.54221       0.7081       0.5698
   1425.52695       0.7571       0.6245    1425.52695       0.7571       0.6244
   1425.51169       0.8256       0.5451    1425.51169       0.8256       0.5450
   1425.49644       0.6931       0.6546    1425.49644       0.6931       0.6546
   1425.48118       0.7738       0.6566    1425.48118       0.7738       0.6566
   1425.46592       0.8106       0.5724    1425.46592       0.8106       0.5724
   1425.45066       0.8369       0.5716    1425.45066       0.8369       0.5716
   1425.43540       0.7778       0.6966    1425.43540       0.7778       0.6965
   1425.42014       0.8607       0.6630    1425.42014       0.8607       0.6630
   1425.40488       0.8199       0.6847    1425.40488       0.8199       0.6846
   1425.38962       0.7298       0.5901    1425.38962       0.7298       0.5900
   1425.37437       0.9122       0.6179    1425.37437       0.9122       0.6179
   1425.35911       0.7923       0.5679    1425.35911       0.7923       0.5678
   1425.34385       0.8503       0.6645    1425.34385       0.8503       0.6645
   1425.32859       0.7629       0.5492    1425.32859       0.7629       0.5491
   1425.31333       0.7462       0.6777    1425.31333       0.7462       0.6777
   1425.29807       0.8112       0.6419    1425.29807       0.8112       0.6418
   1425.28281       0.8303       0.7105    1425.28281       0.8303       0.7105
   1425.26755       0.8388       0.6134    1425.26755       0.8388       0.6134
   1425.25229       0.8207       0.6587    1425.25229       0.8207       0.6587
   1425.23704       0.7661       0.7054    1425.23704       0.7661       0.7053
   1425.22178       0.8090       0.5731    1425.22178       0.8089       0.5731
   1425.20652       0.8084       0.6560    1425.20652       0.8084       0.6559
   1425.19126       0.7931       0.7868    1425.19126       0.7931       0.7868
   1425.17600       0.8061       0.6628    1425.17600       0.8061       0.6627
   1425.16074       0.7734       0.6381    1425.16074       0.7734       0.6381
   1425.14548       0.7690       0.5958    1425.14548       0.7690       0.5958
   1425.13022       0.8036       0.7534    1425.13022       0.8035       0.7533
   1425.11497       0.8488       0.7130    1425.11497       0.8488       0.7129
   1425.09971       0.8349       0.5589    1425.09971       0.8349       0.5588
   1425.08445       0.8334       0.6544    1425.08445       0.8334       0.6543
   1425.06919       0.8279       0.6609    1425.06919       0.8279       0.6608
   1425.05393       0.7454       0.6444    1425.05393       0.7453       0.6443
   1425.03867       0.7355       0.6680    1425.03867       0.7355       0.6680
   1425.02341       0.7755       0.5191    1425.02341       0.7755       0.5191
   1425.00815       0.8459       0.6640    1425.00815       0.8459       0.6640
   1424.99290       0.8070       0.7442    1424.99290       0.8070       0.7442
   1424.97764       0.8114       0.7814    1424.97764       0.8114       0.7814
   1424.96238       0.8315       0.5387    1424.96238       0.8315       0.5387
   1424.94712       0.8158       0.7199    1424.94712       0.8158       0.7199
   1424.93186       0.8693       0.6799    1424.93186       0.8692       0.6799
   1424.91660       0.8329       0.6427    1424.91660       0.8329       0.6427
   1424.90134       0.8183       0.6301    1424.90134       0.8183       0.6300
   1424.88608       0.8515       0.7172    1424.88608       0.8515       0.7172
   1424.87083       0.8210       0.6737    1424.87083       0.8209       0.6737
   1424.85557       0.8171       0.7210    1424.85557       0.8170       0.7210
   1424.84031       0.7821       0.7519    1424.84031       0.7821       0.7518
   1424.82505       0.8146       0.6652    1424.82505       0.8146       0.6652
   1424.80979       0.8522       0.7330    1424.80979       0.8522       0.7330
   1424.79453       0.9035       0.6662    1424.79453       0.9035       0.6662
   1424.77927       0.8195       0.7058    1424.77927       0.8195       0.7058
   1424.76401       0.8401       0.7419    1424.76401       0.8400       0.7418
   1424.74875       0.8722       0.6608    1424.74875       0.8722       0.6607
   1424.73350       0.9078       0.7218    1424.73350       0.9077       0.7218
   1424.71824       0.8476       0.6788    1424.71824       0.8475       0.6788
   1424.70298       0.8556       0.6248    1424.70298       0.8556       0.6248
   1424.68772       0.8989       0.7223    1424.68772       0.8989       0.7222
   1424.67246       0.8391       0.7553    1424.67246       0.8391       0.7552
   1424.65720       0.8000       0.6943    1424.65720       0.8000       0.6942
   1424.64194       0.8488       0.6721    1424.64194       0.8488       0.6720
   1424.62668       0.8446       0.7200    1424.62668       0.8445       0.7199
   1424.61143       0.8571       0.6967    1424.61143       0.8571       0.6966
   1424.59617       0.8176       0.7394    1424.59617       0.8176       0.7393
   1424.58091       0.8485       0.6531    1424.58091       0.8484       0.6530
   1424.56565       0.8291       0.6109    1424.56565       0.8291       0.6109
   1424.55039       0.8817       0.6289    1424.55039       0.8817       0.6289
   1424.53513       0.8400       0.7182    1424.53513       0.8400       0.7182
   1424.51987       0.8695       0.7394    1424.51987       0.8695       0.7393
   1424.50461       0.8798       0.7182    1424.50461       0.8797       0.7182
   1424.48936       0.8540       0.6387    1424.48936       0.8540       0.6387
   1424.47410       0.8748       0.6086    1424.47410       0.8748       0.6085
   1424.45884       0.8762       0.6382    1424.45884       0.8762       0.6382
   1424.44358       0.8056       0.6701    1424.44358       0.8056       0.6701
   1424.42832       0.8825       0.6862    1424.42832       0.8825       0.6861
   1424.41306       0.8629       0.7989    1424.41306       0.8629       0.7989
   1424.39780       0.8815       0.6485    1424.39780       0.8815       0.6485
   1424.38254       0.8581       0.6930    1424.38254       0.8581       0.6929
   1424.36729       0.8384       0.7530    1424.36729       0.8384       0.7529
   1424.35203       0.8501       0.6064    1424.35203       0.8501       0.6064
   1424.33677       0.8248       0.6956    1424.33677       0.8248       0.6955
   1424.32151       0.8468       0.7423    1424.32151       0.8468       0.7423
   1424.30625       0.8044       0.7703    1424.30625       0.8044       0.7703
   1424.29099       0.8382       0.7090    1424.29099       0.8382       0.7090
   1424.27573       0.8441       0.7157    1424.27573       0.8441       0.7156
   1424.26047       0.8717       0.7914    1424.26047       0.8717       0.7913
   1424.24521       0.8387       0.6932    1424.24521       0.8387       0.6931
   1424.22996       0.8784       0.7823    1424.22996       0.8783       0.7823
   1424.21470       0.8454       0.7777    1424.21470       0.8454       0.7776
   1424.19944       0.8642       0.7709    1424.19944       0.8642       0.7708
   1424.18418       0.8246       0.7773    1424.18418       0.8246       0.7772
   1424.16892       0.8959       0.8982    1424.16892       0.8959       0.8981
   1424.15366       0.8378       0.7360    1424.15366       0.8378       0.7359
   1424.13840       0.8905       0.6817    1424.13840       0.8904       0.6816
   1424.12314       0.8407       0.7637    1424.12314       0.8407       0.7637
   1424.10789       0.8161       0.7470    1424.10789       0.8161       0.7469
   1424.09263       0.8344       0.6839    1424.09263       0.8344       0.6838
   1424.07737       0.8013       0.6291    1424.07737       0.8012       0.6290
   1424.06211       0.8888       0.8689    1424.06211       0.8888       0.8688
   1424.04685       0.8630       0.6997    1424.04685       0.8630       0.6997
   1424.03159       0.8580       0.7126    1424.03159       0.8580       0.7125
   1424.01633       0.9028       0.7008    1424.01633       0.9028       0.7007
   1424.00107       0.8344       0.7964    1424.00107       0.8344       0.7963
