#     FILENAME=Skynet_59284_M31_35kpc_Spoor_52431_1402.A.onoff.cal.txt
#     BASENAME=Skynet_59284_M31_35kpc_Spoor_52431_1402
#      CONTROL=SKYNET
#     PROJCODE=Skynet_59284_M31_35kpc_Spoor_52431
#     DATAROOT=/raid/scratch/cyborg/SkynetData
#      DATADIR=/raid/scratch/cyborg
#     DATADIR2=/raid/scratch/cyborg/SkynetData/Skynet_59284_M31_35kpc_Spoor_52
#     SCANNAME=2019_06_26_10
#     SRC_NAME=M31_35kpc_Spoor
#     OBSERVER=unioncollege_21317
#     DATE_OBS=2021-03-11T12:19:02.270
#        OBSID=52431
#      SCANNUM=1402
#          MJD=59284.5132207
#          UTC=44342
#     SCANTYPE=onoff
#     DATAMODE=HIRES
#     RECEIVER=Rx1_2
#      OBSFREQ=1395.0000
# Actual_FREQ1=1420.4000,
# Actual_FREQ2=1420.4000
#    LO1Tuning=6870.4000
#     RFFILTER=1355_1435
#        OBSBW=-15.6250
#     EFFBANDW=15.6250
#        NCHAN=1024
#    STARTCHAN=51
#     STOPCHAN=972
#         TINT=0.3000
#         TBIN=0.00419430
#       ACCLEN=2048 
#     DURATION=324.00
#     EXPOSURE=250.46
#        FOCUS=37.071
#       RA,DEC=00:34:30.27, 39:14:24.59
#      RA(deg)=7.30615
#     DEC(deg)=39.24048
#   WIDTH(deg)=2.0630x0.0250
#    AZIM(deg)=55.6250
#    ELEV(deg)=21.4113
#     COORDREF=RA_DEC_
#         HREF=8.5971
#         VREF=39.2405
#      RADESYS=FK5
#       OFFSYS=RADEC
#      EQUINOX=2000.00
#     IFATTENS=21.00, 14.00
#   BALANCELEV=1.200 
#   POWER_XLYR=[3.13, 2.73] 
#       VELDEF=RADI-OBS 
#     VELOCITY=0.000 
#         NPOL=2 
#      POLMODE=Linear 
#      POLTYPE=XXYY 
#      WARNING=None 
#     NOISECAL=HI 
#       PRECAL=2 
#      POSTCAL=2 
#     CRYOTEMP=15 
#      BOXTEMP=26 
#         TSYS=XX1:36.14, YY1:43.52
#         TSYS=XX2:36.14, YY2:43.52
#         TCAL=XX1:9.17, YY1:10.07
#         TCAL=XX2:9.17, YY2:10.07
# Calibrated spectra: Tsys*(ON-OFF)/OFF 
#                
#                
#Freq1(MHz)         XX1          YY1   Freq2(MHz)       XX2         YY2 
   1427.43430       1.3374       0.5285    1427.43430       1.3375       0.5285
   1427.41904       1.3470       0.5527    1427.41904       1.3471       0.5527
   1427.40378       1.3846       0.5788    1427.40378       1.3847       0.5788
   1427.38853       1.3149       0.5521    1427.38853       1.3150       0.5521
   1427.37327       1.3493       0.6438    1427.37327       1.3494       0.6438
   1427.35801       1.3851       0.5961    1427.35801       1.3851       0.5961
   1427.34275       1.4181       0.5137    1427.34275       1.4182       0.5137
   1427.32749       1.2947       0.5026    1427.32749       1.2948       0.5026
   1427.31223       1.3568       0.5347    1427.31223       1.3569       0.5347
   1427.29697       1.4251       0.4192    1427.29697       1.4252       0.4192
   1427.28171       1.3573       0.4764    1427.28171       1.3574       0.4764
   1427.26646       1.3764       0.5015    1427.26646       1.3765       0.5015
   1427.25120       1.3971       0.5513    1427.25120       1.3972       0.5513
   1427.23594       1.3913       0.5501    1427.23594       1.3914       0.5501
   1427.22068       1.3900       0.4979    1427.22068       1.3901       0.4979
   1427.20542       1.3639       0.4333    1427.20542       1.3640       0.4333
   1427.19016       1.3360       0.5339    1427.19016       1.3361       0.5339
   1427.17490       1.3155       0.5860    1427.17490       1.3156       0.5860
   1427.15964       1.3740       0.4698    1427.15964       1.3741       0.4698
   1427.14438       1.3577       0.5743    1427.14438       1.3577       0.5743
   1427.12913       1.3451       0.4868    1427.12913       1.3452       0.4868
   1427.11387       1.3718       0.4431    1427.11387       1.3719       0.4431
   1427.09861       1.3071       0.5756    1427.09861       1.3072       0.5756
   1427.08335       1.3218       0.4414    1427.08335       1.3219       0.4414
   1427.06809       1.3254       0.5250    1427.06809       1.3254       0.5250
   1427.05283       1.3613       0.5008    1427.05283       1.3614       0.5008
   1427.03757       1.3522       0.5066    1427.03757       1.3522       0.5066
   1427.02231       1.3654       0.5296    1427.02231       1.3655       0.5296
   1427.00706       1.3944       0.4528    1427.00706       1.3945       0.4528
   1426.99180       1.3841       0.5159    1426.99180       1.3842       0.5159
   1426.97654       1.2959       0.5290    1426.97654       1.2960       0.5290
   1426.96128       1.3243       0.4799    1426.96128       1.3244       0.4799
   1426.94602       1.2655       0.5873    1426.94602       1.2656       0.5873
   1426.93076       1.3502       0.4852    1426.93076       1.3503       0.4852
   1426.91550       1.3107       0.4521    1426.91550       1.3107       0.4521
   1426.90024       1.3501       0.4407    1426.90024       1.3502       0.4407
   1426.88499       1.2648       0.4842    1426.88499       1.2649       0.4842
   1426.86973       1.3553       0.4844    1426.86973       1.3554       0.4844
   1426.85447       1.3371       0.5474    1426.85447       1.3372       0.5474
   1426.83921       1.3099       0.4308    1426.83921       1.3100       0.4308
   1426.82395       1.3040       0.4526    1426.82395       1.3041       0.4526
   1426.80869       1.3127       0.4353    1426.80869       1.3128       0.4353
   1426.79343       1.2829       0.5594    1426.79343       1.2830       0.5594
   1426.77817       1.2823       0.4698    1426.77817       1.2824       0.4698
   1426.76292       1.2574       0.4860    1426.76292       1.2574       0.4860
   1426.74766       1.2883       0.5336    1426.74766       1.2884       0.5336
   1426.73240       1.2861       0.4765    1426.73240       1.2862       0.4765
   1426.71714       1.2240       0.4571    1426.71714       1.2241       0.4571
   1426.70188       1.2267       0.4692    1426.70188       1.2268       0.4692
   1426.68662       1.2521       0.4725    1426.68662       1.2522       0.4725
   1426.67136       1.3186       0.4915    1426.67136       1.3187       0.4915
   1426.65610       1.2963       0.4692    1426.65610       1.2964       0.4692
   1426.64084       1.2796       0.4894    1426.64084       1.2797       0.4894
   1426.62559       1.1983       0.4383    1426.62559       1.1984       0.4383
   1426.61033       1.2296       0.4201    1426.61033       1.2296       0.4201
   1426.59507       1.1975       0.5390    1426.59507       1.1976       0.5390
   1426.57981       1.2295       0.5304    1426.57981       1.2296       0.5304
   1426.56455       1.2489       0.4669    1426.56455       1.2490       0.4669
   1426.54929       1.2705       0.4160    1426.54929       1.2706       0.4160
   1426.53403       1.1865       0.5634    1426.53403       1.1866       0.5634
   1426.51877       1.2766       0.5366    1426.51877       1.2767       0.5366
   1426.50352       1.1516       0.5346    1426.50352       1.1516       0.5346
   1426.48826       1.1625       0.4864    1426.48826       1.1626       0.4864
   1426.47300       1.1953       0.4943    1426.47300       1.1954       0.4943
   1426.45774       1.2572       0.5625    1426.45774       1.2573       0.5625
   1426.44248       1.1804       0.5467    1426.44248       1.1805       0.5467
   1426.42722       1.1176       0.5703    1426.42722       1.1177       0.5703
   1426.41196       1.2231       0.4728    1426.41196       1.2231       0.4728
   1426.39670       1.1998       0.5235    1426.39670       1.1999       0.5235
   1426.38145       1.1719       0.5720    1426.38145       1.1720       0.5720
   1426.36619       1.1580       0.5515    1426.36619       1.1581       0.5515
   1426.35093       1.1549       0.5970    1426.35093       1.1550       0.5970
   1426.33567       1.2291       0.4757    1426.33567       1.2292       0.4757
   1426.32041       1.1296       0.5769    1426.32041       1.1297       0.5769
   1426.30515       1.1067       0.5162    1426.30515       1.1068       0.5162
   1426.28989       1.1340       0.5990    1426.28989       1.1341       0.5990
   1426.27463       1.0962       0.5479    1426.27463       1.0963       0.5479
   1426.25937       1.1230       0.5221    1426.25937       1.1231       0.5221
   1426.24412       1.1952       0.5298    1426.24412       1.1953       0.5298
   1426.22886       1.1635       0.5741    1426.22886       1.1636       0.5741
   1426.21360       1.0950       0.6339    1426.21360       1.0951       0.6339
   1426.19834       1.1078       0.5100    1426.19834       1.1078       0.5100
   1426.18308       1.0882       0.5625    1426.18308       1.0883       0.5625
   1426.16782       1.0879       0.5036    1426.16782       1.0880       0.5036
   1426.15256       1.0079       0.5603    1426.15256       1.0080       0.5603
   1426.13730       1.0641       0.6620    1426.13730       1.0642       0.6620
   1426.12205       0.9495       0.5682    1426.12205       0.9496       0.5682
   1426.10679       1.0566       0.5301    1426.10679       1.0567       0.5301
   1426.09153       1.0673       0.5934    1426.09153       1.0674       0.5934
   1426.07627       1.0760       0.5532    1426.07627       1.0761       0.5532
   1426.06101       1.0526       0.6117    1426.06101       1.0527       0.6117
   1426.04575       1.0485       0.6436    1426.04575       1.0486       0.6436
   1426.03049       0.9679       0.6236    1426.03049       0.9679       0.6236
   1426.01523       0.9991       0.5890    1426.01523       0.9992       0.5890
   1425.99998       1.0318       0.5393    1425.99998       1.0319       0.5393
   1425.98472       1.0063       0.5828    1425.98472       1.0064       0.5828
   1425.96946       0.9568       0.5613    1425.96946       0.9569       0.5613
   1425.95420       0.9705       0.6398    1425.95420       0.9706       0.6398
   1425.93894       1.0405       0.6253    1425.93894       1.0406       0.6253
   1425.92368       0.9833       0.6196    1425.92368       0.9834       0.6196
   1425.90842       0.9540       0.6711    1425.90842       0.9541       0.6711
   1425.89316       1.0143       0.6021    1425.89316       1.0143       0.6021
   1425.87791       1.0695       0.6144    1425.87791       1.0696       0.6144
   1425.86265       1.0707       0.6522    1425.86265       1.0708       0.6522
   1425.84739       1.0350       0.6298    1425.84739       1.0351       0.6298
   1425.83213       0.9697       0.6230    1425.83213       0.9698       0.6230
   1425.81687       0.9511       0.6337    1425.81687       0.9511       0.6337
   1425.80161       0.9586       0.6510    1425.80161       0.9586       0.6510
   1425.78635       0.9185       0.6196    1425.78635       0.9185       0.6196
   1425.77109       0.9521       0.6593    1425.77109       0.9521       0.6593
   1425.75583       0.9525       0.6153    1425.75583       0.9526       0.6153
   1425.74058       0.8804       0.6523    1425.74058       0.8805       0.6523
   1425.72532       0.8837       0.7178    1425.72532       0.8838       0.7178
   1425.71006       0.8387       0.6481    1425.71006       0.8388       0.6481
   1425.69480       0.9177       0.5937    1425.69480       0.9177       0.5937
   1425.67954       0.9387       0.6203    1425.67954       0.9387       0.6203
   1425.66428       0.8899       0.7369    1425.66428       0.8900       0.7369
   1425.64902       0.8394       0.7339    1425.64902       0.8394       0.7339
   1425.63376       0.8287       0.6413    1425.63376       0.8288       0.6413
   1425.61851       0.9144       0.6096    1425.61851       0.9145       0.6096
   1425.60325       0.8941       0.8194    1425.60325       0.8941       0.8194
   1425.58799       0.8624       0.6768    1425.58799       0.8625       0.6768
   1425.57273       0.8357       0.6324    1425.57273       0.8358       0.6324
   1425.55747       0.8681       0.6512    1425.55747       0.8682       0.6512
   1425.54221       0.8813       0.6203    1425.54221       0.8814       0.6203
   1425.52695       0.8592       0.7321    1425.52695       0.8593       0.7321
   1425.51169       0.8468       0.6569    1425.51169       0.8468       0.6569
   1425.49644       0.8040       0.7257    1425.49644       0.8041       0.7257
   1425.48118       0.8097       0.6428    1425.48118       0.8098       0.6428
   1425.46592       0.8243       0.7597    1425.46592       0.8243       0.7597
   1425.45066       0.8242       0.8065    1425.45066       0.8242       0.8065
   1425.43540       0.8297       0.7304    1425.43540       0.8298       0.7304
   1425.42014       0.7655       0.7265    1425.42014       0.7655       0.7265
   1425.40488       0.8346       0.7692    1425.40488       0.8347       0.7692
   1425.38962       0.7558       0.6731    1425.38962       0.7559       0.6731
   1425.37437       0.7977       0.7038    1425.37437       0.7978       0.7038
   1425.35911       0.7626       0.7926    1425.35911       0.7626       0.7926
   1425.34385       0.7597       0.7242    1425.34385       0.7597       0.7242
   1425.32859       0.7257       0.7946    1425.32859       0.7257       0.7946
   1425.31333       0.7167       0.7355    1425.31333       0.7167       0.7355
   1425.29807       0.7196       0.8495    1425.29807       0.7197       0.8495
   1425.28281       0.7380       0.7562    1425.28281       0.7380       0.7562
   1425.26755       0.8111       0.7234    1425.26755       0.8111       0.7234
   1425.25229       0.7486       0.8209    1425.25229       0.7487       0.8209
   1425.23704       0.7109       0.8352    1425.23704       0.7109       0.8352
   1425.22178       0.7481       0.8007    1425.22178       0.7482       0.8007
   1425.20652       0.7111       0.8015    1425.20652       0.7111       0.8015
   1425.19126       0.7229       0.8321    1425.19126       0.7230       0.8321
   1425.17600       0.7179       0.7410    1425.17600       0.7179       0.7410
   1425.16074       0.6873       0.7582    1425.16074       0.6874       0.7582
   1425.14548       0.7139       0.8211    1425.14548       0.7140       0.8211
   1425.13022       0.7306       0.7147    1425.13022       0.7307       0.7147
   1425.11497       0.6706       0.7954    1425.11497       0.6707       0.7954
   1425.09971       0.7002       0.7899    1425.09971       0.7002       0.7899
   1425.08445       0.6917       0.7843    1425.08445       0.6918       0.7843
   1425.06919       0.6704       0.8046    1425.06919       0.6705       0.8046
   1425.05393       0.6613       0.9062    1425.05393       0.6613       0.9062
   1425.03867       0.6512       0.8747    1425.03867       0.6513       0.8747
   1425.02341       0.6027       0.8174    1425.02341       0.6028       0.8174
   1425.00815       0.6352       0.8071    1425.00815       0.6353       0.8071
   1424.99290       0.6309       0.8522    1424.99290       0.6310       0.8522
   1424.97764       0.6493       0.7788    1424.97764       0.6493       0.7788
   1424.96238       0.6824       0.8314    1424.96238       0.6824       0.8314
   1424.94712       0.6135       0.8331    1424.94712       0.6136       0.8331
   1424.93186       0.5591       0.8213    1424.93186       0.5591       0.8213
   1424.91660       0.6382       0.8574    1424.91660       0.6383       0.8574
   1424.90134       0.6191       0.7999    1424.90134       0.6192       0.7999
   1424.88608       0.5646       0.7821    1424.88608       0.5646       0.7821
   1424.87083       0.6068       0.7839    1424.87083       0.6068       0.7839
   1424.85557       0.5778       0.7532    1424.85557       0.5779       0.7532
   1424.84031       0.6230       0.8049    1424.84031       0.6230       0.8049
   1424.82505       0.5904       0.8484    1424.82505       0.5904       0.8484
   1424.80979       0.5383       0.8121    1424.80979       0.5384       0.8121
   1424.79453       0.5923       0.8602    1424.79453       0.5923       0.8602
   1424.77927       0.5454       0.8486    1424.77927       0.5454       0.8486
   1424.76401       0.5212       0.8509    1424.76401       0.5213       0.8509
   1424.74875       0.5073       0.8946    1424.74875       0.5074       0.8946
   1424.73350       0.5487       0.9267    1424.73350       0.5488       0.9267
   1424.71824       0.5358       0.8700    1424.71824       0.5359       0.8700
   1424.70298       0.5258       0.8635    1424.70298       0.5258       0.8635
   1424.68772       0.5255       0.9200    1424.68772       0.5255       0.9200
   1424.67246       0.4902       0.8640    1424.67246       0.4902       0.8640
   1424.65720       0.4867       0.8779    1424.65720       0.4867       0.8779
   1424.64194       0.5371       0.8891    1424.64194       0.5371       0.8891
   1424.62668       0.4955       0.9307    1424.62668       0.4955       0.9307
   1424.61143       0.5188       0.8640    1424.61143       0.5188       0.8640
   1424.59617       0.5385       0.8660    1424.59617       0.5385       0.8660
   1424.58091       0.4349       0.8774    1424.58091       0.4350       0.8774
   1424.56565       0.5177       0.9576    1424.56565       0.5177       0.9576
   1424.55039       0.5066       0.9398    1424.55039       0.5067       0.9398
   1424.53513       0.5057       0.8674    1424.53513       0.5058       0.8674
   1424.51987       0.4245       0.9735    1424.51987       0.4245       0.9735
   1424.50461       0.4641       0.9677    1424.50461       0.4642       0.9677
   1424.48936       0.4552       0.8944    1424.48936       0.4552       0.8944
   1424.47410       0.4113       0.9367    1424.47410       0.4113       0.9367
   1424.45884       0.4055       0.9590    1424.45884       0.4055       0.9590
   1424.44358       0.4272       1.0033    1424.44358       0.4273       1.0033
   1424.42832       0.4338       0.8709    1424.42832       0.4338       0.8709
   1424.41306       0.4253       0.9288    1424.41306       0.4253       0.9288
   1424.39780       0.4214       0.9815    1424.39780       0.4214       0.9815
   1424.38254       0.3992       0.9791    1424.38254       0.3992       0.9791
   1424.36729       0.4446       1.0792    1424.36729       0.4446       1.0792
   1424.35203       0.4228       1.0746    1424.35203       0.4228       1.0746
   1424.33677       0.3904       0.9631    1424.33677       0.3904       0.9631
   1424.32151       0.3650       0.9230    1424.32151       0.3650       0.9230
   1424.30625       0.3701       1.0120    1424.30625       0.3701       1.0120
   1424.29099       0.4008       0.9887    1424.29099       0.4008       0.9887
   1424.27573       0.3674       1.0039    1424.27573       0.3675       1.0039
   1424.26047       0.4692       1.0094    1424.26047       0.4693       1.0094
   1424.24521       0.3570       1.0140    1424.24521       0.3570       1.0140
   1424.22996       0.3475       1.0087    1424.22996       0.3475       1.0087
   1424.21470       0.4230       0.9280    1424.21470       0.4230       0.9280
   1424.19944       0.3613       0.9889    1424.19944       0.3613       0.9889
   1424.18418       0.3711       1.0295    1424.18418       0.3711       1.0295
   1424.16892       0.3046       1.0310    1424.16892       0.3046       1.0310
   1424.15366       0.3504       1.0283    1424.15366       0.3504       1.0283
   1424.13840       0.3226       0.9921    1424.13840       0.3226       0.9921
   1424.12314       0.2713       1.0235    1424.12314       0.2713       1.0235
   1424.10789       0.2918       1.0605    1424.10789       0.2918       1.0605
   1424.09263       0.3273       1.0797    1424.09263       0.3273       1.0797
   1424.07737       0.3238       1.0235    1424.07737       0.3238       1.0235
   1424.06211       0.3626       1.1629    1424.06211       0.3626       1.1629
   1424.04685       0.2761       1.0194    1424.04685       0.2761       1.0194
   1424.03159       0.2434       1.0230    1424.03159       0.2435       1.0230
   1424.01633       0.3045       1.0449    1424.01633       0.3046       1.0449
   1424.00107       0.2965       1.0325    1424.00107       0.2965       1.0325
