#     FILENAME=Skynet_58992_M31_25kpc_Jillian_44939_54547.A.onoff.cal.txt
#     BASENAME=Skynet_58992_M31_25kpc_Jillian_44939_54547
#      CONTROL=SKYNET
#     PROJCODE=Skynet_58992_M31_25kpc_Jillian_44939
#     DATAROOT=/raid/scratch/cyborg/SkynetData
#      DATADIR=/raid/scratch/cyborg
#     DATADIR2=/raid/scratch/cyborg/SkynetData/Skynet_58992_M31_25kpc_Jillian_
#     SCANNAME=2018_05_24_20
#     SRC_NAME=M31_25kpc_Jillian
#     OBSERVER=unioncollege_21317
#     DATE_OBS=2020-05-23T07:33:45.110
#        OBSID=44939
#      SCANNUM=54547
#          MJD=58992.3151054
#          UTC=27225
#     SCANTYPE=onoff
#     DATAMODE=HIRES
#     RECEIVER=Rx1_2
#      OBSFREQ=1395.0000
# Actual_FREQ1=1423.0000,
# Actual_FREQ2=1423.0000
#    LO1Tuning=6873.0000
#     RFFILTER=1355_1435
#        OBSBW=-15.6250
#     EFFBANDW=15.6250
#        NCHAN=1024
#    STARTCHAN=51
#     STOPCHAN=972
#         TINT=0.3000
#         TBIN=0.00026214
#       ACCLEN=2048 
#     DURATION=167.40
#     EXPOSURE=125.38
#        FOCUS=36.895
#       RA,DEC=00:36:41.99, 39:51:30.34
#      RA(deg)=7.81751
#     DEC(deg)=39.85828
#   WIDTH(deg)=2.0928x0.0314
#    AZIM(deg)=54.9967
#    ELEV(deg)=21.6299
#     COORDREF=RA_DEC_
#         HREF=9.1100
#         VREF=39.8583
#      RADESYS=FK5
#       OFFSYS=RADEC
#      EQUINOX=2000.00
#     IFATTENS=17.00, 1.00
#   BALANCELEV=1.200 
#   POWER_XLYR=[1.23, 1.33] 
#       VELDEF=RADI-OBS 
#     VELOCITY=0.000 
#         NPOL=2 
#      POLMODE=Linear 
#      POLTYPE=XXYY 
#      WARNING=None 
#     NOISECAL=HI 
#       PRECAL=2 
#      POSTCAL=2 
#     CRYOTEMP=296 
#      BOXTEMP=31 
#         TSYS=XX1:119.07, YY1:144.46
#         TSYS=XX2:119.05, YY2:144.35
#         TCAL=XX1:9.18, YY1:10.14
#         TCAL=XX2:9.18, YY2:10.14
# Calibrated spectra: Tsys*(ON-OFF)/OFF 
#                
#                
#Freq1(MHz)         XX1          YY1   Freq2(MHz)       XX2         YY2 
   1430.03430       0.8037       1.7717    1430.03430       0.8036       1.7704
   1430.01904       0.9066       1.6245    1430.01904       0.9065       1.6233
   1430.00378       0.9853       1.5336    1430.00378       0.9851       1.5325
   1429.98853       0.7840       1.8207    1429.98853       0.7839       1.8194
   1429.97327       0.8635       1.3495    1429.97327       0.8633       1.3485
   1429.95801       1.0674       1.8884    1429.95801       1.0672       1.8870
   1429.94275       0.9356       1.2757    1429.94275       0.9354       1.2748
   1429.92749       0.5701       1.8697    1429.92749       0.5700       1.8683
   1429.91223       0.7673       1.4493    1429.91223       0.7671       1.4483
   1429.89697       0.7034       1.6629    1429.89697       0.7033       1.6617
   1429.88171       0.8893       1.6984    1429.88171       0.8891       1.6971
   1429.86646       0.8345       1.5919    1429.86646       0.8344       1.5908
   1429.85120       0.7498       1.8298    1429.85120       0.7497       1.8284
   1429.83594       1.0018       1.6454    1429.83594       1.0016       1.6442
   1429.82068       0.6206       1.3597    1429.82068       0.6205       1.3587
   1429.80542       0.9112       1.8963    1429.80542       0.9110       1.8949
   1429.79016       0.9267       1.6816    1429.79016       0.9266       1.6804
   1429.77490       0.8841       1.9482    1429.77490       0.8840       1.9468
   1429.75964       0.5456       1.5872    1429.75964       0.5455       1.5860
   1429.74438       0.9640       1.3503    1429.74438       0.9638       1.3493
   1429.72913       0.6213       1.6645    1429.72913       0.6212       1.6633
   1429.71387       0.7241       1.8232    1429.71387       0.7239       1.8219
   1429.69861       0.8116       1.7324    1429.69861       0.8114       1.7311
   1429.68335       0.8737       1.8869    1429.68335       0.8736       1.8855
   1429.66809       0.5992       2.2724    1429.66809       0.5991       2.2707
   1429.65283       0.9950       1.4369    1429.65283       0.9949       1.4359
   1429.63757       0.5009       1.8555    1429.63757       0.5008       1.8542
   1429.62231       0.6693       1.7668    1429.62231       0.6692       1.7655
   1429.60706       0.6243       1.5902    1429.60706       0.6241       1.5890
   1429.59180       0.9240       1.7818    1429.59180       0.9238       1.7805
   1429.57654       0.9412       1.3525    1429.57654       0.9410       1.3515
   1429.56128       0.4740       1.6317    1429.56128       0.4739       1.6305
   1429.54602       0.9216       1.3685    1429.54602       0.9214       1.3675
   1429.53076       0.9124       1.7637    1429.53076       0.9122       1.7624
   1429.51550       0.9338       1.5052    1429.51550       0.9336       1.5041
   1429.50024       1.0236       1.7482    1429.50024       1.0234       1.7470
   1429.48499       0.7524       1.6354    1429.48499       0.7522       1.6342
   1429.46973       0.6836       1.8333    1429.46973       0.6835       1.8320
   1429.45447       0.7569       1.8023    1429.45447       0.7568       1.8010
   1429.43921       0.8063       1.3423    1429.43921       0.8061       1.3413
   1429.42395       0.4968       1.4099    1429.42395       0.4967       1.4089
   1429.40869       0.7654       1.4627    1429.40869       0.7653       1.4616
   1429.39343       0.8742       1.5126    1429.39343       0.8740       1.5115
   1429.37817       0.9160       1.5433    1429.37817       0.9158       1.5422
   1429.36292       0.7726       1.8123    1429.36292       0.7725       1.8109
   1429.34766       0.5938       1.6212    1429.34766       0.5937       1.6200
   1429.33240       0.6239       1.6942    1429.33240       0.6237       1.6930
   1429.31714       0.7248       1.6659    1429.31714       0.7246       1.6647
   1429.30188       0.7172       1.3757    1429.30188       0.7170       1.3747
   1429.28662       0.7750       1.3881    1429.28662       0.7748       1.3871
   1429.27136       0.6092       1.5675    1429.27136       0.6091       1.5663
   1429.25610       0.9198       1.5529    1429.25610       0.9196       1.5517
   1429.24084       0.4941       1.6593    1429.24084       0.4940       1.6581
   1429.22559       0.6535       1.7986    1429.22559       0.6534       1.7973
   1429.21033       0.7369       1.1655    1429.21033       0.7368       1.1647
   1429.19507       0.7170       1.3686    1429.19507       0.7169       1.3676
   1429.17981       0.6186       1.5095    1429.17981       0.6185       1.5084
   1429.16455       0.5587       1.9557    1429.16455       0.5586       1.9543
   1429.14929       0.7090       1.7140    1429.14929       0.7088       1.7127
   1429.13403       0.7647       1.8260    1429.13403       0.7645       1.8247
   1429.11877       1.0504       1.5538    1429.11877       1.0502       1.5526
   1429.10352       0.6899       1.8470    1429.10352       0.6898       1.8456
   1429.08826       0.6217       1.6884    1429.08826       0.6216       1.6872
   1429.07300       0.4100       2.1428    1429.07300       0.4099       2.1412
   1429.05774       0.6680       2.0781    1429.05774       0.6679       2.0766
   1429.04248       0.5746       1.7184    1429.04248       0.5745       1.7171
   1429.02722       0.7618       1.8475    1429.02722       0.7616       1.8461
   1429.01196       0.8496       1.8882    1429.01196       0.8495       1.8868
   1428.99670       0.7768       1.9534    1428.99670       0.7766       1.9520
   1428.98145       0.7177       1.6553    1428.98145       0.7175       1.6540
   1428.96619       0.7232       1.7656    1428.96619       0.7231       1.7643
   1428.95093       0.8075       1.3338    1428.95093       0.8074       1.3328
   1428.93567       0.6689       1.1172    1428.93567       0.6687       1.1163
   1428.92041       0.8881       1.5021    1428.92041       0.8879       1.5010
   1428.90515       0.8906       1.3170    1428.90515       0.8904       1.3160
   1428.88989       1.0005       1.7733    1428.88989       1.0003       1.7720
   1428.87463       0.6651       1.7988    1428.87463       0.6650       1.7975
   1428.85938       0.4140       1.9431    1428.85938       0.4139       1.9417
   1428.84412       0.6548       1.7642    1428.84412       0.6547       1.7629
   1428.82886       0.6683       1.4000    1428.82886       0.6682       1.3989
   1428.81360       1.0359       1.6512    1428.81360       1.0357       1.6500
   1428.79834       1.0735       1.4804    1428.79834       1.0732       1.4793
   1428.78308       0.7798       1.3418    1428.78308       0.7797       1.3408
   1428.76782       0.7047       1.6237    1428.76782       0.7045       1.6225
   1428.75256       0.9418       1.9690    1428.75256       0.9416       1.9676
   1428.73730       0.8858       1.9539    1428.73730       0.8856       1.9525
   1428.72205       0.9692       1.8559    1428.72205       0.9690       1.8546
   1428.70679       0.5791       1.8567    1428.70679       0.5790       1.8553
   1428.69153       0.8104       1.5074    1428.69153       0.8103       1.5063
   1428.67627       0.9359       1.7486    1428.67627       0.9357       1.7473
   1428.66101       0.7716       1.7351    1428.66101       0.7715       1.7339
   1428.64575       1.0633       1.7863    1428.64575       1.0631       1.7850
   1428.63049       0.8675       1.5260    1428.63049       0.8673       1.5248
   1428.61523       0.9300       1.4408    1428.61523       0.9298       1.4397
   1428.59998       0.5796       1.8194    1428.59998       0.5795       1.8181
   1428.58472       0.6067       1.7672    1428.58472       0.6066       1.7659
   1428.56946       0.8385       1.9705    1428.56946       0.8383       1.9691
   1428.55420       0.6705       1.9708    1428.55420       0.6704       1.9694
   1428.53894       0.7850       1.7158    1428.53894       0.7848       1.7146
   1428.52368       0.7086       1.9095    1428.52368       0.7084       1.9081
   1428.50842       0.8039       1.6636    1428.50842       0.8037       1.6624
   1428.49316       0.4898       1.3731    1428.49316       0.4897       1.3721
   1428.47791       0.9153       1.8786    1428.47791       0.9151       1.8772
   1428.46265       0.5426       1.4113    1428.46265       0.5425       1.4103
   1428.44739       0.6844       1.6934    1428.44739       0.6842       1.6921
   1428.43213       0.8572       1.7523    1428.43213       0.8570       1.7510
   1428.41687       1.0857       1.6994    1428.41687       1.0855       1.6981
   1428.40161       0.4695       1.4141    1428.40161       0.4694       1.4130
   1428.38635       0.7562       1.6266    1428.38635       0.7561       1.6254
   1428.37109       1.0069       1.4338    1428.37109       1.0067       1.4327
   1428.35583       0.8329       1.6882    1428.35583       0.8327       1.6870
   1428.34058       0.5933       1.7425    1428.34058       0.5932       1.7412
   1428.32532       0.7804       1.3230    1428.32532       0.7803       1.3220
   1428.31006       0.7260       1.7525    1428.31006       0.7258       1.7512
   1428.29480       0.7360       1.6828    1428.29480       0.7358       1.6816
   1428.27954       0.7238       1.8058    1428.27954       0.7237       1.8045
   1428.26428       0.8575       1.7042    1428.26428       0.8573       1.7029
   1428.24902       0.8288       1.8956    1428.24902       0.8286       1.8942
   1428.23376       1.0455       1.6141    1428.23376       1.0453       1.6129
   1428.21851       0.6628       1.7138    1428.21851       0.6627       1.7126
   1428.20325       0.7894       1.7288    1428.20325       0.7892       1.7275
   1428.18799       0.8716       1.9482    1428.18799       0.8714       1.9467
   1428.17273       1.0870       1.8773    1428.17273       1.0868       1.8759
   1428.15747       0.6459       1.5648    1428.15747       0.6458       1.5636
   1428.14221       0.6794       1.4893    1428.14221       0.6792       1.4882
   1428.12695       0.8835       1.7091    1428.12695       0.8833       1.7078
   1428.11169       0.8902       1.7151    1428.11169       0.8900       1.7139
   1428.09644       0.9187       1.6995    1428.09644       0.9185       1.6983
   1428.08118       0.6401       1.6190    1428.08118       0.6399       1.6178
   1428.06592       0.7472       1.8444    1428.06592       0.7471       1.8431
   1428.05066       1.0470       1.4265    1428.05066       1.0467       1.4255
   1428.03540       0.9126       1.8655    1428.03540       0.9124       1.8642
   1428.02014       1.0312       1.6857    1428.02014       1.0310       1.6845
   1428.00488       1.0521       1.6295    1428.00488       1.0519       1.6283
   1427.98962       0.7831       1.5262    1427.98962       0.7829       1.5251
   1427.97437       0.9276       1.5829    1427.97437       0.9274       1.5818
   1427.95911       0.7177       1.2904    1427.95911       0.7176       1.2895
   1427.94385       0.5263       1.8992    1427.94385       0.5262       1.8979
   1427.92859       0.8110       1.5304    1427.92859       0.8108       1.5293
   1427.91333       0.5339       1.4720    1427.91333       0.5338       1.4710
   1427.89807       0.7653       1.4979    1427.89807       0.7651       1.4968
   1427.88281       0.9428       2.0533    1427.88281       0.9427       2.0518
   1427.86755       0.8098       1.8049    1427.86755       0.8096       1.8036
   1427.85229       0.8141       1.7733    1427.85229       0.8139       1.7720
   1427.83704       1.0545       1.4365    1427.83704       1.0543       1.4354
   1427.82178       0.7198       1.4484    1427.82178       0.7196       1.4473
   1427.80652       0.7227       1.6097    1427.80652       0.7226       1.6085
   1427.79126       0.5718       1.6661    1427.79126       0.5717       1.6649
   1427.77600       0.8171       1.5139    1427.77600       0.8169       1.5128
   1427.76074       0.9308       1.6408    1427.76074       0.9306       1.6396
   1427.74548       0.9627       1.5025    1427.74548       0.9625       1.5014
   1427.73022       1.0666       1.4014    1427.73022       1.0664       1.4004
   1427.71497       0.6713       1.6118    1427.71497       0.6712       1.6106
   1427.69971       0.8391       1.6666    1427.69971       0.8389       1.6654
   1427.68445       0.9419       1.7217    1427.68445       0.9417       1.7204
   1427.66919       1.0878       1.4652    1427.66919       1.0876       1.4641
   1427.65393       1.0652       1.4364    1427.65393       1.0650       1.4354
   1427.63867       1.0915       1.5198    1427.63867       1.0913       1.5187
   1427.62341       0.7910       1.7568    1427.62341       0.7909       1.7555
   1427.60815       0.8028       1.9725    1427.60815       0.8026       1.9711
   1427.59290       0.9431       1.4393    1427.59290       0.9429       1.4383
   1427.57764       0.9050       1.7499    1427.57764       0.9048       1.7487
   1427.56238       0.9768       1.4277    1427.56238       0.9766       1.4266
   1427.54712       0.8561       1.4658    1427.54712       0.8559       1.4647
   1427.53186       0.7543       1.8464    1427.53186       0.7542       1.8450
   1427.51660       0.9787       1.6030    1427.51660       0.9785       1.6018
   1427.50134       0.6225       1.4458    1427.50134       0.6224       1.4448
   1427.48608       0.8814       1.2855    1427.48608       0.8812       1.2846
   1427.47083       0.9428       1.6198    1427.47083       0.9426       1.6186
   1427.45557       0.9769       1.3312    1427.45557       0.9767       1.3302
   1427.44031       1.1157       1.4748    1427.44031       1.1155       1.4737
   1427.42505       0.8031       1.8354    1427.42505       0.8029       1.8341
   1427.40979       0.8215       1.4398    1427.40979       0.8214       1.4387
   1427.39453       0.9774       1.4566    1427.39453       0.9772       1.4555
   1427.37927       1.0783       1.4787    1427.37927       1.0781       1.4776
   1427.36401       1.1097       1.2923    1427.36401       1.1095       1.2913
   1427.34875       0.9423       1.3351    1427.34875       0.9421       1.3342
   1427.33350       0.9342       1.3019    1427.33350       0.9340       1.3009
   1427.31824       1.0535       1.3384    1427.31824       1.0533       1.3374
   1427.30298       1.1426       1.6362    1427.30298       1.1423       1.6350
   1427.28772       1.1072       1.5113    1427.28772       1.1070       1.5102
   1427.27246       1.0314       1.5594    1427.27246       1.0312       1.5583
   1427.25720       0.8879       1.6103    1427.25720       0.8878       1.6091
   1427.24194       0.8991       1.4303    1427.24194       0.8989       1.4293
   1427.22668       1.0153       1.4310    1427.22668       1.0151       1.4300
   1427.21143       0.9068       1.9696    1427.21143       0.9066       1.9682
   1427.19617       1.0780       1.7915    1427.19617       1.0778       1.7902
   1427.18091       0.8827       1.4254    1427.18091       0.8826       1.4244
   1427.16565       1.0056       1.6448    1427.16565       1.0054       1.6436
   1427.15039       1.1605       1.3651    1427.15039       1.1602       1.3641
   1427.13513       0.9293       1.3010    1427.13513       0.9291       1.3000
   1427.11987       0.8876       1.3178    1427.11987       0.8874       1.3168
   1427.10461       1.0241       1.6058    1427.10461       1.0239       1.6047
   1427.08936       0.8419       1.1746    1427.08936       0.8417       1.1737
   1427.07410       1.0921       1.6195    1427.07410       1.0919       1.6183
   1427.05884       1.0695       1.2630    1427.05884       1.0693       1.2621
   1427.04358       1.1009       1.6175    1427.04358       1.1007       1.6163
   1427.02832       1.0386       1.6583    1427.02832       1.0384       1.6571
   1427.01306       1.1950       1.2839    1427.01306       1.1948       1.2830
   1426.99780       1.1390       1.2943    1426.99780       1.1387       1.2934
   1426.98254       1.1897       1.2781    1426.98254       1.1895       1.2772
   1426.96729       0.9414       1.7407    1426.96729       0.9412       1.7394
   1426.95203       1.0724       1.3155    1426.95203       1.0722       1.3145
   1426.93677       0.9268       1.4251    1426.93677       0.9266       1.4241
   1426.92151       1.0395       1.6317    1426.92151       1.0393       1.6305
   1426.90625       1.3872       1.0753    1426.90625       1.3869       1.0745
   1426.89099       1.0449       1.3459    1426.89099       1.0447       1.3449
   1426.87573       1.2035       1.4794    1426.87573       1.2032       1.4783
   1426.86047       0.9817       1.3477    1426.86047       0.9815       1.3467
   1426.84521       1.1027       1.3153    1426.84521       1.1025       1.3143
   1426.82996       1.0462       1.6262    1426.82996       1.0460       1.6250
   1426.81470       1.1410       1.4468    1426.81470       1.1407       1.4457
   1426.79944       1.0385       1.6435    1426.79944       1.0383       1.6423
   1426.78418       1.3550       1.1809    1426.78418       1.3547       1.1801
   1426.76892       1.1735       1.4251    1426.76892       1.1733       1.4240
   1426.75366       1.0875       1.8520    1426.75366       1.0873       1.8506
   1426.73840       1.1664       1.7327    1426.73840       1.1662       1.7314
   1426.72314       1.0308       1.3301    1426.72314       1.0306       1.3291
   1426.70789       1.3864       1.2192    1426.70789       1.3861       1.2183
   1426.69263       1.2330       1.0487    1426.69263       1.2328       1.0479
   1426.67737       1.3158       1.0463    1426.67737       1.3156       1.0456
   1426.66211       1.5963       1.5250    1426.66211       1.5960       1.5239
   1426.64685       1.2388       1.1872    1426.64685       1.2385       1.1863
   1426.63159       1.1738       1.2138    1426.63159       1.1736       1.2129
   1426.61633       1.4098       1.1772    1426.61633       1.4095       1.1763
   1426.60107       1.1617       1.4759    1426.60107       1.1615       1.4748
