#     FILENAME=Skynet_59284_M31_20kpc_ABurns_52427_1405.A.onoff.cal.txt
#     BASENAME=Skynet_59284_M31_20kpc_ABurns_52427_1405
#      CONTROL=SKYNET
#     PROJCODE=Skynet_59284_M31_20kpc_ABurns_52427
#     DATAROOT=/raid/scratch/cyborg/SkynetData
#      DATADIR=/raid/scratch/cyborg
#     DATADIR2=/raid/scratch/cyborg/SkynetData/Skynet_59284_M31_20kpc_ABurns_5
#     SCANNAME=2019_06_26_10
#     SRC_NAME=M31_20kpc_ABurns
#     OBSERVER=unioncollege_21317
#     DATE_OBS=2021-03-11T12:34:22.190
#        OBSID=52427
#      SCANNUM=1405
#          MJD=59284.5238679
#          UTC=45262
#     SCANTYPE=onoff
#     DATAMODE=HIRES
#     RECEIVER=Rx1_2
#      OBSFREQ=1395.0000
# Actual_FREQ1=1420.4000,
# Actual_FREQ2=1420.4000
#    LO1Tuning=6870.4000
#     RFFILTER=1355_1435
#        OBSBW=-15.6250
#     EFFBANDW=15.6250
#        NCHAN=1024
#    STARTCHAN=51
#     STOPCHAN=972
#         TINT=0.3000
#         TBIN=0.00419430
#       ACCLEN=2048 
#     DURATION=206.40
#     EXPOSURE=156.28
#        FOCUS=37.071
#       RA,DEC=00:38:15.07, 40:06:59.49
#      RA(deg)=8.19006
#     DEC(deg)=40.11679
#   WIDTH(deg)=2.0936x0.0264
#    AZIM(deg)=56.0098
#    ELEV(deg)=23.6343
#     COORDREF=RA_DEC_
#         HREF=9.4917
#         VREF=40.1169
#      RADESYS=FK5
#       OFFSYS=RADEC
#      EQUINOX=2000.00
#     IFATTENS=21.00, 14.00
#   BALANCELEV=1.200 
#   POWER_XLYR=[1.09, 1.32] 
#       VELDEF=RADI-OBS 
#     VELOCITY=0.000 
#         NPOL=2 
#      POLMODE=Linear 
#      POLTYPE=XXYY 
#      WARNING=None 
#     NOISECAL=HI 
#       PRECAL=2 
#      POSTCAL=2 
#     CRYOTEMP=15 
#      BOXTEMP=26 
#         TSYS=XX1:34.54, YY1:42.00
#         TSYS=XX2:34.53, YY2:41.99
#         TCAL=XX1:9.17, YY1:10.07
#         TCAL=XX2:9.17, YY2:10.07
# Calibrated spectra: Tsys*(ON-OFF)/OFF 
#                
#                
#Freq1(MHz)         XX1          YY1   Freq2(MHz)       XX2         YY2 
   1427.43430       0.3920       0.5621    1427.43430       0.3919       0.5619
   1427.41904       0.3867       0.4677    1427.41904       0.3867       0.4676
   1427.40378       0.4414       0.4374    1427.40378       0.4413       0.4373
   1427.38853       0.3388       0.4647    1427.38853       0.3387       0.4645
   1427.37327       0.2994       0.4219    1427.37327       0.2994       0.4218
   1427.35801       0.3749       0.4601    1427.35801       0.3748       0.4600
   1427.34275       0.3408       0.3741    1427.34275       0.3407       0.3740
   1427.32749       0.3741       0.4589    1427.32749       0.3740       0.4588
   1427.31223       0.3498       0.3929    1427.31223       0.3497       0.3928
   1427.29697       0.4032       0.3867    1427.29697       0.4031       0.3866
   1427.28171       0.2364       0.4611    1427.28171       0.2364       0.4610
   1427.26646       0.3639       0.4209    1427.26646       0.3639       0.4208
   1427.25120       0.4808       0.4037    1427.25120       0.4807       0.4036
   1427.23594       0.3256       0.4662    1427.23594       0.3256       0.4661
   1427.22068       0.3595       0.5166    1427.22068       0.3594       0.5164
   1427.20542       0.4715       0.3654    1427.20542       0.4714       0.3653
   1427.19016       0.3516       0.4302    1427.19016       0.3515       0.4301
   1427.17490       0.3046       0.4244    1427.17490       0.3045       0.4243
   1427.15964       0.3679       0.3605    1427.15964       0.3678       0.3604
   1427.14438       0.3459       0.4738    1427.14438       0.3458       0.4737
   1427.12913       0.4143       0.4458    1427.12913       0.4143       0.4457
   1427.11387       0.2933       0.4542    1427.11387       0.2933       0.4541
   1427.09861       0.3486       0.4141    1427.09861       0.3485       0.4140
   1427.08335       0.3045       0.4216    1427.08335       0.3045       0.4215
   1427.06809       0.3148       0.4831    1427.06809       0.3148       0.4829
   1427.05283       0.4014       0.4162    1427.05283       0.4013       0.4160
   1427.03757       0.4261       0.3794    1427.03757       0.4260       0.3793
   1427.02231       0.3706       0.4014    1427.02231       0.3705       0.4013
   1427.00706       0.3855       0.4496    1427.00706       0.3854       0.4495
   1426.99180       0.4221       0.4204    1426.99180       0.4221       0.4203
   1426.97654       0.3081       0.4380    1426.97654       0.3080       0.4379
   1426.96128       0.3377       0.4593    1426.96128       0.3377       0.4592
   1426.94602       0.3820       0.4644    1426.94602       0.3819       0.4643
   1426.93076       0.3544       0.3879    1426.93076       0.3543       0.3878
   1426.91550       0.4041       0.4841    1426.91550       0.4041       0.4839
   1426.90024       0.3731       0.4483    1426.90024       0.3730       0.4482
   1426.88499       0.3991       0.3408    1426.88499       0.3991       0.3407
   1426.86973       0.3370       0.4295    1426.86973       0.3369       0.4294
   1426.85447       0.3911       0.3829    1426.85447       0.3910       0.3828
   1426.83921       0.4265       0.2797    1426.83921       0.4265       0.2797
   1426.82395       0.4509       0.4570    1426.82395       0.4509       0.4569
   1426.80869       0.4028       0.4180    1426.80869       0.4028       0.4178
   1426.79343       0.3677       0.4666    1426.79343       0.3676       0.4664
   1426.77817       0.3359       0.3878    1426.77817       0.3359       0.3877
   1426.76292       0.3575       0.3968    1426.76292       0.3575       0.3967
   1426.74766       0.4176       0.4487    1426.74766       0.4175       0.4485
   1426.73240       0.4169       0.4451    1426.73240       0.4168       0.4450
   1426.71714       0.3939       0.4318    1426.71714       0.3939       0.4317
   1426.70188       0.3987       0.4675    1426.70188       0.3986       0.4674
   1426.68662       0.3585       0.4009    1426.68662       0.3584       0.4007
   1426.67136       0.4002       0.4626    1426.67136       0.4001       0.4624
   1426.65610       0.3637       0.4538    1426.65610       0.3636       0.4536
   1426.64084       0.4028       0.4842    1426.64084       0.4028       0.4841
   1426.62559       0.4194       0.1985    1426.62559       0.4193       0.1984
   1426.61033       0.3934       0.4303    1426.61033       0.3933       0.4302
   1426.59507       0.4299       0.4313    1426.59507       0.4298       0.4311
   1426.57981       0.4392       0.3926    1426.57981       0.4391       0.3925
   1426.56455       0.3654       0.4947    1426.56455       0.3653       0.4946
   1426.54929       0.3459       0.4208    1426.54929       0.3459       0.4206
   1426.53403       0.3297       0.4350    1426.53403       0.3297       0.4349
   1426.51877       0.3820       0.3753    1426.51877       0.3819       0.3752
   1426.50352       0.4498       0.4096    1426.50352       0.4497       0.4095
   1426.48826       0.3720       0.4464    1426.48826       0.3720       0.4462
   1426.47300       0.3672       0.3913    1426.47300       0.3671       0.3912
   1426.45774       0.3642       0.3908    1426.45774       0.3641       0.3907
   1426.44248       0.3271       0.5047    1426.44248       0.3270       0.5045
   1426.42722       0.4692       0.4010    1426.42722       0.4691       0.4009
   1426.41196       0.3919       0.3689    1426.41196       0.3918       0.3688
   1426.39670       0.3719       0.3387    1426.39670       0.3719       0.3386
   1426.38145       0.3798       0.5546    1426.38145       0.3798       0.5545
   1426.36619       0.4384       0.3857    1426.36619       0.4383       0.3856
   1426.35093       0.3705       0.4228    1426.35093       0.3705       0.4226
   1426.33567       0.4491       0.3346    1426.33567       0.4490       0.3345
   1426.32041       0.4063       0.3783    1426.32041       0.4063       0.3782
   1426.30515       0.3022       0.3449    1426.30515       0.3021       0.3448
   1426.28989       0.3804       0.4361    1426.28989       0.3804       0.4359
   1426.27463       0.4764       0.4021    1426.27463       0.4764       0.4020
   1426.25937       0.3760       0.4453    1426.25937       0.3759       0.4452
   1426.24412       0.3768       0.4642    1426.24412       0.3768       0.4640
   1426.22886       0.3499       0.4332    1426.22886       0.3499       0.4330
   1426.21360       0.3583       0.5219    1426.21360       0.3583       0.5217
   1426.19834       0.4021       0.3360    1426.19834       0.4020       0.3359
   1426.18308       0.4407       0.5050    1426.18308       0.4406       0.5049
   1426.16782       0.3535       0.4567    1426.16782       0.3535       0.4566
   1426.15256       0.4253       0.4562    1426.15256       0.4252       0.4561
   1426.13730       0.3904       0.4704    1426.13730       0.3904       0.4703
   1426.12205       0.4054       0.4479    1426.12205       0.4054       0.4478
   1426.10679       0.4651       0.4291    1426.10679       0.4650       0.4290
   1426.09153       0.3434       0.4568    1426.09153       0.3434       0.4567
   1426.07627       0.4338       0.3884    1426.07627       0.4337       0.3883
   1426.06101       0.4673       0.4525    1426.06101       0.4672       0.4524
   1426.04575       0.3522       0.4582    1426.04575       0.3521       0.4581
   1426.03049       0.3391       0.4631    1426.03049       0.3391       0.4630
   1426.01523       0.4461       0.5034    1426.01523       0.4460       0.5033
   1425.99998       0.3871       0.4983    1425.99998       0.3870       0.4981
   1425.98472       0.4078       0.4981    1425.98472       0.4077       0.4980
   1425.96946       0.4274       0.4906    1425.96946       0.4273       0.4904
   1425.95420       0.3876       0.4919    1425.95420       0.3875       0.4918
   1425.93894       0.4600       0.4681    1425.93894       0.4599       0.4680
   1425.92368       0.4097       0.4212    1425.92368       0.4096       0.4210
   1425.90842       0.4361       0.4269    1425.90842       0.4360       0.4268
   1425.89316       0.4499       0.4640    1425.89316       0.4498       0.4639
   1425.87791       0.3749       0.4716    1425.87791       0.3748       0.4715
   1425.86265       0.4000       0.5319    1425.86265       0.4000       0.5318
   1425.84739       0.4527       0.4700    1425.84739       0.4526       0.4698
   1425.83213       0.3887       0.5172    1425.83213       0.3886       0.5170
   1425.81687       0.3840       0.5078    1425.81687       0.3840       0.5077
   1425.80161       0.3951       0.5049    1425.80161       0.3951       0.5048
   1425.78635       0.4477       0.4808    1425.78635       0.4476       0.4807
   1425.77109       0.4766       0.4582    1425.77109       0.4765       0.4580
   1425.75583       0.4522       0.5926    1425.75583       0.4521       0.5924
   1425.74058       0.4508       0.5311    1425.74058       0.4507       0.5309
   1425.72532       0.3875       0.4875    1425.72532       0.3874       0.4874
   1425.71006       0.3949       0.5366    1425.71006       0.3948       0.5364
   1425.69480       0.4301       0.5174    1425.69480       0.4301       0.5173
   1425.67954       0.4733       0.4363    1425.67954       0.4732       0.4361
   1425.66428       0.3573       0.4905    1425.66428       0.3572       0.4904
   1425.64902       0.4274       0.3955    1425.64902       0.4273       0.3953
   1425.63376       0.4149       0.4841    1425.63376       0.4149       0.4839
   1425.61851       0.3839       0.4891    1425.61851       0.3838       0.4889
   1425.60325       0.4411       0.4778    1425.60325       0.4410       0.4777
   1425.58799       0.3973       0.4798    1425.58799       0.3972       0.4796
   1425.57273       0.3979       0.5449    1425.57273       0.3978       0.5448
   1425.55747       0.3931       0.4782    1425.55747       0.3930       0.4781
   1425.54221       0.4755       0.5302    1425.54221       0.4754       0.5300
   1425.52695       0.3785       0.4733    1425.52695       0.3784       0.4732
   1425.51169       0.3987       0.4479    1425.51169       0.3987       0.4477
   1425.49644       0.4156       0.4929    1425.49644       0.4155       0.4928
   1425.48118       0.4581       0.5096    1425.48118       0.4580       0.5094
   1425.46592       0.3845       0.4924    1425.46592       0.3844       0.4922
   1425.45066       0.3975       0.5460    1425.45066       0.3974       0.5459
   1425.43540       0.3880       0.5002    1425.43540       0.3880       0.5000
   1425.42014       0.4233       0.5175    1425.42014       0.4232       0.5173
   1425.40488       0.3844       0.4629    1425.40488       0.3843       0.4627
   1425.38962       0.4271       0.5920    1425.38962       0.4270       0.5918
   1425.37437       0.3863       0.5152    1425.37437       0.3862       0.5151
   1425.35911       0.4565       0.4928    1425.35911       0.4564       0.4926
   1425.34385       0.4215       0.5285    1425.34385       0.4215       0.5284
   1425.32859       0.4761       0.5223    1425.32859       0.4760       0.5221
   1425.31333       0.5045       0.5773    1425.31333       0.5044       0.5771
   1425.29807       0.4848       0.4576    1425.29807       0.4847       0.4575
   1425.28281       0.4677       0.4297    1425.28281       0.4676       0.4296
   1425.26755       0.4578       0.4765    1425.26755       0.4577       0.4764
   1425.25229       0.4260       0.5420    1425.25229       0.4259       0.5418
   1425.23704       0.4987       0.4233    1425.23704       0.4987       0.4231
   1425.22178       0.4134       0.5964    1425.22178       0.4133       0.5962
   1425.20652       0.5145       0.5208    1425.20652       0.5144       0.5207
   1425.19126       0.5056       0.5736    1425.19126       0.5055       0.5734
   1425.17600       0.5404       0.5686    1425.17600       0.5403       0.5685
   1425.16074       0.4278       0.6235    1425.16074       0.4277       0.6234
   1425.14548       0.4806       0.5130    1425.14548       0.4805       0.5128
   1425.13022       0.4576       0.5346    1425.13022       0.4575       0.5344
   1425.11497       0.4304       0.5263    1425.11497       0.4304       0.5262
   1425.09971       0.5300       0.5407    1425.09971       0.5299       0.5406
   1425.08445       0.4346       0.5583    1425.08445       0.4345       0.5582
   1425.06919       0.4223       0.4966    1425.06919       0.4222       0.4965
   1425.05393       0.4292       0.5448    1425.05393       0.4291       0.5446
   1425.03867       0.4339       0.5203    1425.03867       0.4338       0.5202
   1425.02341       0.4027       0.5277    1425.02341       0.4026       0.5276
   1425.00815       0.5453       0.4994    1425.00815       0.5452       0.4993
   1424.99290       0.4325       0.4719    1424.99290       0.4324       0.4718
   1424.97764       0.4784       0.4525    1424.97764       0.4783       0.4524
   1424.96238       0.4626       0.4896    1424.96238       0.4625       0.4895
   1424.94712       0.5153       0.5042    1424.94712       0.5152       0.5040
   1424.93186       0.4275       0.5752    1424.93186       0.4274       0.5751
   1424.91660       0.3983       0.5752    1424.91660       0.3982       0.5750
   1424.90134       0.4976       0.5294    1424.90134       0.4975       0.5292
   1424.88608       0.4661       0.5174    1424.88608       0.4660       0.5173
   1424.87083       0.5034       0.5404    1424.87083       0.5033       0.5402
   1424.85557       0.5008       0.5136    1424.85557       0.5007       0.5134
   1424.84031       0.4515       0.4423    1424.84031       0.4514       0.4421
   1424.82505       0.5184       0.5769    1424.82505       0.5183       0.5768
   1424.80979       0.4692       0.5586    1424.80979       0.4692       0.5584
   1424.79453       0.4730       0.5546    1424.79453       0.4730       0.5545
   1424.77927       0.4446       0.6304    1424.77927       0.4446       0.6302
   1424.76401       0.4561       0.4624    1424.76401       0.4560       0.4623
   1424.74875       0.4973       0.5454    1424.74875       0.4972       0.5452
   1424.73350       0.5038       0.5996    1424.73350       0.5037       0.5995
   1424.71824       0.4836       0.5773    1424.71824       0.4835       0.5771
   1424.70298       0.4914       0.6020    1424.70298       0.4913       0.6018
   1424.68772       0.4508       0.6579    1424.68772       0.4507       0.6577
   1424.67246       0.4956       0.5844    1424.67246       0.4955       0.5842
   1424.65720       0.4952       0.5929    1424.65720       0.4952       0.5927
   1424.64194       0.4543       0.5628    1424.64194       0.4542       0.5626
   1424.62668       0.4789       0.5937    1424.62668       0.4788       0.5935
   1424.61143       0.4999       0.5032    1424.61143       0.4998       0.5031
   1424.59617       0.5452       0.5581    1424.59617       0.5452       0.5580
   1424.58091       0.5341       0.5799    1424.58091       0.5340       0.5797
   1424.56565       0.4919       0.6732    1424.56565       0.4918       0.6730
   1424.55039       0.5229       0.6974    1424.55039       0.5228       0.6972
   1424.53513       0.4625       0.5800    1424.53513       0.4624       0.5798
   1424.51987       0.4870       0.6260    1424.51987       0.4869       0.6259
   1424.50461       0.4996       0.6653    1424.50461       0.4996       0.6652
   1424.48936       0.5311       0.5939    1424.48936       0.5310       0.5937
   1424.47410       0.4988       0.5547    1424.47410       0.4987       0.5546
   1424.45884       0.4649       0.5607    1424.45884       0.4649       0.5605
   1424.44358       0.5445       0.5292    1424.44358       0.5444       0.5290
   1424.42832       0.5109       0.5411    1424.42832       0.5109       0.5409
   1424.41306       0.4598       0.5986    1424.41306       0.4598       0.5985
   1424.39780       0.4227       0.5683    1424.39780       0.4226       0.5681
   1424.38254       0.4632       0.6438    1424.38254       0.4632       0.6436
   1424.36729       0.5127       0.6455    1424.36729       0.5126       0.6453
   1424.35203       0.4764       0.6013    1424.35203       0.4763       0.6011
   1424.33677       0.4682       0.6107    1424.33677       0.4681       0.6106
   1424.32151       0.5246       0.6405    1424.32151       0.5245       0.6403
   1424.30625       0.5270       0.6968    1424.30625       0.5269       0.6966
   1424.29099       0.4274       0.5491    1424.29099       0.4274       0.5490
   1424.27573       0.5093       0.6130    1424.27573       0.5092       0.6128
   1424.26047       0.4703       0.5777    1424.26047       0.4702       0.5775
   1424.24521       0.4488       0.6168    1424.24521       0.4487       0.6166
   1424.22996       0.5091       0.6429    1424.22996       0.5090       0.6427
   1424.21470       0.5237       0.5743    1424.21470       0.5236       0.5741
   1424.19944       0.4949       0.5531    1424.19944       0.4948       0.5530
   1424.18418       0.4579       0.5987    1424.18418       0.4578       0.5985
   1424.16892       0.4664       0.6667    1424.16892       0.4663       0.6665
   1424.15366       0.4997       0.6013    1424.15366       0.4996       0.6011
   1424.13840       0.4933       0.6337    1424.13840       0.4933       0.6335
   1424.12314       0.4444       0.7416    1424.12314       0.4444       0.7414
   1424.10789       0.4743       0.6890    1424.10789       0.4742       0.6888
   1424.09263       0.4914       0.5764    1424.09263       0.4913       0.5763
   1424.07737       0.4428       0.6190    1424.07737       0.4428       0.6188
   1424.06211       0.5764       0.7698    1424.06211       0.5763       0.7696
   1424.04685       0.4389       0.6550    1424.04685       0.4388       0.6548
   1424.03159       0.5085       0.6489    1424.03159       0.5084       0.6487
   1424.01633       0.4839       0.6556    1424.01633       0.4838       0.6554
   1424.00107       0.4571       0.6420    1424.00107       0.4570       0.6418
