#     FILENAME=Skynet_59284_M31_25kpc_AAhmed_52428_1404.A.onoff.cal.txt
#     BASENAME=Skynet_59284_M31_25kpc_AAhmed_52428_1404
#      CONTROL=SKYNET
#     PROJCODE=Skynet_59284_M31_25kpc_AAhmed_52428
#     DATAROOT=/raid/scratch/cyborg/SkynetData
#      DATADIR=/raid/scratch/cyborg
#     DATADIR2=/raid/scratch/cyborg/SkynetData/Skynet_59284_M31_25kpc_AAhmed_5
#     SCANNAME=2019_06_26_10
#     SRC_NAME=M31_25kpc_AAhmed
#     OBSERVER=unioncollege_21317
#     DATE_OBS=2021-03-11T12:29:41.260
#        OBSID=52428
#      SCANNUM=1404
#          MJD=59284.5206164
#          UTC=44981
#     SCANTYPE=onoff
#     DATAMODE=HIRES
#     RECEIVER=Rx1_2
#      OBSFREQ=1395.0000
# Actual_FREQ1=1420.4000,
# Actual_FREQ2=1420.4000
#    LO1Tuning=6870.4000
#     RFFILTER=1355_1435
#        OBSBW=-15.6250
#     EFFBANDW=15.6250
#        NCHAN=1024
#    STARTCHAN=51
#     STOPCHAN=972
#         TINT=0.3000
#         TBIN=0.00419430
#       ACCLEN=2048 
#     DURATION=246.30
#     EXPOSURE=189.57
#        FOCUS=37.093
#       RA,DEC=00:37:03.12, 39:49:30.41
#      RA(deg)=7.89428
#     DEC(deg)=39.82451
#   WIDTH(deg)=2.0947x0.0294
#    AZIM(deg)=55.9383
#    ELEV(deg)=22.9663
#     COORDREF=RA_DEC_
#         HREF=9.1933
#         VREF=39.8247
#      RADESYS=FK5
#       OFFSYS=RADEC
#      EQUINOX=2000.00
#     IFATTENS=21.00, 14.00
#   BALANCELEV=1.200 
#   POWER_XLYR=[1.16, 2.14] 
#       VELDEF=RADI-OBS 
#     VELOCITY=0.000 
#         NPOL=2 
#      POLMODE=Linear 
#      POLTYPE=XXYY 
#      WARNING=None 
#     NOISECAL=HI 
#       PRECAL=2 
#      POSTCAL=2 
#     CRYOTEMP=15 
#      BOXTEMP=26 
#         TSYS=XX1:34.39, YY1:42.00
#         TSYS=XX2:34.39, YY2:41.97
#         TCAL=XX1:9.17, YY1:10.07
#         TCAL=XX2:9.17, YY2:10.07
# Calibrated spectra: Tsys*(ON-OFF)/OFF 
#                
#                
#Freq1(MHz)         XX1          YY1   Freq2(MHz)       XX2         YY2 
   1427.43430       0.5316       0.3455    1427.43430       0.5317       0.3452
   1427.41904       0.5405       0.4782    1427.41904       0.5406       0.4778
   1427.40378       0.5728       0.3534    1427.40378       0.5729       0.3532
   1427.38853       0.5372       0.3520    1427.38853       0.5373       0.3518
   1427.37327       0.4990       0.3257    1427.37327       0.4991       0.3254
   1427.35801       0.5507       0.4440    1427.35801       0.5508       0.4437
   1427.34275       0.5074       0.4141    1427.34275       0.5075       0.4138
   1427.32749       0.6070       0.3091    1427.32749       0.6071       0.3089
   1427.31223       0.5550       0.3177    1427.31223       0.5551       0.3175
   1427.29697       0.5963       0.3616    1427.29697       0.5964       0.3613
   1427.28171       0.5808       0.3824    1427.28171       0.5809       0.3822
   1427.26646       0.5421       0.3364    1427.26646       0.5422       0.3362
   1427.25120       0.4792       0.2878    1427.25120       0.4793       0.2876
   1427.23594       0.5348       0.3073    1427.23594       0.5349       0.3071
   1427.22068       0.4381       0.3760    1427.22068       0.4382       0.3758
   1427.20542       0.5364       0.3737    1427.20542       0.5365       0.3734
   1427.19016       0.4714       0.3461    1427.19016       0.4715       0.3459
   1427.17490       0.5653       0.3316    1427.17490       0.5654       0.3314
   1427.15964       0.5717       0.3781    1427.15964       0.5718       0.3779
   1427.14438       0.5704       0.3758    1427.14438       0.5705       0.3755
   1427.12913       0.5231       0.3239    1427.12913       0.5232       0.3237
   1427.11387       0.5565       0.4109    1427.11387       0.5565       0.4106
   1427.09861       0.5306       0.3369    1427.09861       0.5307       0.3367
   1427.08335       0.5659       0.3617    1427.08335       0.5660       0.3615
   1427.06809       0.5542       0.3486    1427.06809       0.5543       0.3484
   1427.05283       0.6244       0.3263    1427.05283       0.6245       0.3261
   1427.03757       0.5860       0.3494    1427.03757       0.5861       0.3492
   1427.02231       0.5973       0.4190    1427.02231       0.5974       0.4188
   1427.00706       0.5064       0.3657    1427.00706       0.5064       0.3654
   1426.99180       0.5811       0.2973    1426.99180       0.5812       0.2971
   1426.97654       0.5690       0.3978    1426.97654       0.5691       0.3975
   1426.96128       0.5064       0.3933    1426.96128       0.5065       0.3930
   1426.94602       0.5466       0.4167    1426.94602       0.5467       0.4164
   1426.93076       0.5016       0.4061    1426.93076       0.5017       0.4058
   1426.91550       0.5146       0.3937    1426.91550       0.5147       0.3935
   1426.90024       0.5466       0.3844    1426.90024       0.5467       0.3841
   1426.88499       0.5653       0.2409    1426.88499       0.5654       0.2407
   1426.86973       0.5646       0.4062    1426.86973       0.5647       0.4059
   1426.85447       0.5032       0.4503    1426.85447       0.5032       0.4500
   1426.83921       0.4904       0.2991    1426.83921       0.4905       0.2989
   1426.82395       0.4414       0.2632    1426.82395       0.4415       0.2630
   1426.80869       0.5519       0.2861    1426.80869       0.5520       0.2860
   1426.79343       0.5983       0.3522    1426.79343       0.5984       0.3520
   1426.77817       0.6130       0.3136    1426.77817       0.6131       0.3134
   1426.76292       0.5049       0.4329    1426.76292       0.5050       0.4326
   1426.74766       0.5003       0.3365    1426.74766       0.5004       0.3363
   1426.73240       0.5779       0.3581    1426.73240       0.5780       0.3579
   1426.71714       0.6110       0.3956    1426.71714       0.6111       0.3953
   1426.70188       0.4761       0.4306    1426.70188       0.4762       0.4303
   1426.68662       0.6328       0.4212    1426.68662       0.6329       0.4209
   1426.67136       0.5818       0.4197    1426.67136       0.5819       0.4194
   1426.65610       0.6078       0.4000    1426.65610       0.6079       0.3997
   1426.64084       0.6310       0.4856    1426.64084       0.6311       0.4853
   1426.62559       0.5101       0.2554    1426.62559       0.5102       0.2553
   1426.61033       0.5803       0.3366    1426.61033       0.5804       0.3363
   1426.59507       0.6835       0.3423    1426.59507       0.6836       0.3421
   1426.57981       0.5751       0.4356    1426.57981       0.5752       0.4353
   1426.56455       0.6144       0.4148    1426.56455       0.6145       0.4145
   1426.54929       0.5378       0.3420    1426.54929       0.5379       0.3418
   1426.53403       0.5468       0.4036    1426.53403       0.5469       0.4033
   1426.51877       0.5287       0.4200    1426.51877       0.5288       0.4197
   1426.50352       0.5890       0.4570    1426.50352       0.5891       0.4567
   1426.48826       0.6269       0.4073    1426.48826       0.6270       0.4071
   1426.47300       0.5615       0.2502    1426.47300       0.5616       0.2500
   1426.45774       0.5795       0.4075    1426.45774       0.5796       0.4072
   1426.44248       0.5937       0.4005    1426.44248       0.5938       0.4003
   1426.42722       0.5739       0.3872    1426.42722       0.5740       0.3869
   1426.41196       0.5169       0.4741    1426.41196       0.5170       0.4738
   1426.39670       0.5006       0.3895    1426.39670       0.5006       0.3893
   1426.38145       0.5362       0.3291    1426.38145       0.5363       0.3289
   1426.36619       0.6035       0.3861    1426.36619       0.6036       0.3859
   1426.35093       0.5708       0.3974    1426.35093       0.5709       0.3971
   1426.33567       0.5572       0.3746    1426.33567       0.5573       0.3743
   1426.32041       0.5534       0.3623    1426.32041       0.5535       0.3620
   1426.30515       0.5317       0.3444    1426.30515       0.5318       0.3442
   1426.28989       0.5977       0.3407    1426.28989       0.5978       0.3405
   1426.27463       0.6200       0.2626    1426.27463       0.6201       0.2624
   1426.25937       0.5964       0.4093    1426.25937       0.5965       0.4090
   1426.24412       0.6217       0.3348    1426.24412       0.6218       0.3346
   1426.22886       0.6689       0.4331    1426.22886       0.6690       0.4329
   1426.21360       0.6329       0.4231    1426.21360       0.6330       0.4228
   1426.19834       0.5454       0.4568    1426.19834       0.5455       0.4565
   1426.18308       0.5858       0.3815    1426.18308       0.5859       0.3812
   1426.16782       0.5733       0.4066    1426.16782       0.5734       0.4063
   1426.15256       0.6233       0.4468    1426.15256       0.6234       0.4465
   1426.13730       0.5755       0.3624    1426.13730       0.5756       0.3621
   1426.12205       0.5881       0.4458    1426.12205       0.5882       0.4455
   1426.10679       0.5761       0.4502    1426.10679       0.5762       0.4499
   1426.09153       0.6141       0.4387    1426.09153       0.6142       0.4384
   1426.07627       0.5322       0.4250    1426.07627       0.5323       0.4248
   1426.06101       0.5745       0.4888    1426.06101       0.5746       0.4885
   1426.04575       0.5734       0.4129    1426.04575       0.5734       0.4127
   1426.03049       0.6548       0.4145    1426.03049       0.6549       0.4142
   1426.01523       0.6982       0.3692    1426.01523       0.6983       0.3689
   1425.99998       0.5716       0.3364    1425.99998       0.5717       0.3362
   1425.98472       0.6068       0.3946    1425.98472       0.6069       0.3943
   1425.96946       0.5822       0.5024    1425.96946       0.5823       0.5021
   1425.95420       0.5777       0.4580    1425.95420       0.5777       0.4577
   1425.93894       0.5225       0.4571    1425.93894       0.5226       0.4568
   1425.92368       0.5562       0.5074    1425.92368       0.5563       0.5070
   1425.90842       0.5126       0.4706    1425.90842       0.5126       0.4703
   1425.89316       0.6220       0.4493    1425.89316       0.6221       0.4490
   1425.87791       0.6165       0.4862    1425.87791       0.6166       0.4858
   1425.86265       0.6168       0.4814    1425.86265       0.6169       0.4810
   1425.84739       0.5504       0.5329    1425.84739       0.5505       0.5326
   1425.83213       0.6367       0.4107    1425.83213       0.6368       0.4104
   1425.81687       0.5960       0.5665    1425.81687       0.5961       0.5661
   1425.80161       0.5837       0.3757    1425.80161       0.5838       0.3754
   1425.78635       0.6279       0.4726    1425.78635       0.6280       0.4723
   1425.77109       0.5176       0.5466    1425.77109       0.5177       0.5463
   1425.75583       0.5782       0.4523    1425.75583       0.5783       0.4520
   1425.74058       0.5743       0.4417    1425.74058       0.5744       0.4414
   1425.72532       0.6211       0.4314    1425.72532       0.6212       0.4311
   1425.71006       0.5539       0.5367    1425.71006       0.5540       0.5363
   1425.69480       0.6010       0.5685    1425.69480       0.6011       0.5681
   1425.67954       0.6196       0.4226    1425.67954       0.6197       0.4224
   1425.66428       0.6525       0.4511    1425.66428       0.6527       0.4508
   1425.64902       0.5495       0.5382    1425.64902       0.5495       0.5378
   1425.63376       0.5599       0.4773    1425.63376       0.5600       0.4770
   1425.61851       0.6141       0.5297    1425.61851       0.6142       0.5294
   1425.60325       0.6138       0.4512    1425.60325       0.6139       0.4509
   1425.58799       0.5612       0.4520    1425.58799       0.5613       0.4517
   1425.57273       0.6447       0.5496    1425.57273       0.6448       0.5492
   1425.55747       0.6279       0.5844    1425.55747       0.6280       0.5840
   1425.54221       0.5443       0.5293    1425.54221       0.5443       0.5289
   1425.52695       0.5404       0.5095    1425.52695       0.5405       0.5092
   1425.51169       0.6400       0.5530    1425.51169       0.6402       0.5527
   1425.49644       0.5997       0.4841    1425.49644       0.5998       0.4838
   1425.48118       0.6183       0.6228    1425.48118       0.6184       0.6224
   1425.46592       0.6329       0.4764    1425.46592       0.6330       0.4761
   1425.45066       0.5044       0.6010    1425.45066       0.5045       0.6006
   1425.43540       0.6661       0.4840    1425.43540       0.6662       0.4837
   1425.42014       0.6391       0.5217    1425.42014       0.6392       0.5213
   1425.40488       0.6014       0.4445    1425.40488       0.6015       0.4442
   1425.38962       0.5880       0.5677    1425.38962       0.5881       0.5674
   1425.37437       0.5586       0.5239    1425.37437       0.5587       0.5235
   1425.35911       0.5568       0.5083    1425.35911       0.5569       0.5079
   1425.34385       0.6554       0.5458    1425.34385       0.6555       0.5455
   1425.32859       0.6216       0.4791    1425.32859       0.6217       0.4788
   1425.31333       0.5917       0.5539    1425.31333       0.5918       0.5535
   1425.29807       0.6266       0.5659    1425.29807       0.6267       0.5655
   1425.28281       0.5972       0.6196    1425.28281       0.5973       0.6192
   1425.26755       0.5973       0.4688    1425.26755       0.5974       0.4684
   1425.25229       0.6609       0.6167    1425.25229       0.6610       0.6163
   1425.23704       0.6455       0.5855    1425.23704       0.6456       0.5851
   1425.22178       0.5308       0.6356    1425.22178       0.5308       0.6352
   1425.20652       0.6190       0.5216    1425.20652       0.6191       0.5212
   1425.19126       0.5826       0.5657    1425.19126       0.5826       0.5653
   1425.17600       0.6138       0.5346    1425.17600       0.6139       0.5342
   1425.16074       0.5993       0.5868    1425.16074       0.5994       0.5864
   1425.14548       0.6053       0.5842    1425.14548       0.6054       0.5838
   1425.13022       0.6236       0.4859    1425.13022       0.6237       0.4856
   1425.11497       0.5983       0.5643    1425.11497       0.5984       0.5639
   1425.09971       0.6067       0.5206    1425.09971       0.6068       0.5203
   1425.08445       0.5989       0.5218    1425.08445       0.5990       0.5214
   1425.06919       0.6210       0.5236    1425.06919       0.6211       0.5232
   1425.05393       0.6085       0.5259    1425.05393       0.6086       0.5255
   1425.03867       0.6446       0.5204    1425.03867       0.6447       0.5201
   1425.02341       0.6296       0.6107    1425.02341       0.6297       0.6103
   1425.00815       0.5980       0.5630    1425.00815       0.5981       0.5627
   1424.99290       0.6017       0.5913    1424.99290       0.6018       0.5909
   1424.97764       0.5822       0.5108    1424.97764       0.5823       0.5104
   1424.96238       0.5590       0.5462    1424.96238       0.5591       0.5458
   1424.94712       0.5975       0.4893    1424.94712       0.5976       0.4890
   1424.93186       0.5884       0.5321    1424.93186       0.5884       0.5317
   1424.91660       0.5693       0.6454    1424.91660       0.5693       0.6449
   1424.90134       0.5958       0.6434    1424.90134       0.5959       0.6429
   1424.88608       0.6187       0.6302    1424.88608       0.6188       0.6298
   1424.87083       0.5321       0.7157    1424.87083       0.5322       0.7152
   1424.85557       0.5998       0.6872    1424.85557       0.5999       0.6868
   1424.84031       0.5943       0.7071    1424.84031       0.5944       0.7066
   1424.82505       0.5665       0.6317    1424.82505       0.5666       0.6313
   1424.80979       0.6080       0.5646    1424.80979       0.6081       0.5643
   1424.79453       0.5768       0.7081    1424.79453       0.5769       0.7076
   1424.77927       0.6076       0.6115    1424.77927       0.6077       0.6111
   1424.76401       0.5942       0.6612    1424.76401       0.5943       0.6607
   1424.74875       0.6219       0.5675    1424.74875       0.6220       0.5671
   1424.73350       0.6942       0.6586    1424.73350       0.6943       0.6581
   1424.71824       0.6159       0.6543    1424.71824       0.6160       0.6538
   1424.70298       0.5902       0.6071    1424.70298       0.5902       0.6067
   1424.68772       0.6338       0.6843    1424.68772       0.6339       0.6838
   1424.67246       0.5458       0.6197    1424.67246       0.5459       0.6193
   1424.65720       0.6194       0.7096    1424.65720       0.6195       0.7091
   1424.64194       0.6162       0.5800    1424.64194       0.6163       0.5796
   1424.62668       0.5968       0.6763    1424.62668       0.5969       0.6759
   1424.61143       0.5832       0.5387    1424.61143       0.5833       0.5383
   1424.59617       0.6230       0.5779    1424.59617       0.6231       0.5775
   1424.58091       0.6148       0.6132    1424.58091       0.6149       0.6128
   1424.56565       0.5769       0.6250    1424.56565       0.5770       0.6246
   1424.55039       0.6537       0.5741    1424.55039       0.6538       0.5737
   1424.53513       0.5715       0.6293    1424.53513       0.5716       0.6289
   1424.51987       0.6455       0.6843    1424.51987       0.6456       0.6839
   1424.50461       0.6769       0.6463    1424.50461       0.6770       0.6459
   1424.48936       0.6468       0.6602    1424.48936       0.6469       0.6597
   1424.47410       0.6045       0.6454    1424.47410       0.6046       0.6449
   1424.45884       0.6230       0.6691    1424.45884       0.6231       0.6686
   1424.44358       0.6220       0.6886    1424.44358       0.6221       0.6882
   1424.42832       0.6051       0.5928    1424.42832       0.6052       0.5924
   1424.41306       0.6490       0.7061    1424.41306       0.6491       0.7056
   1424.39780       0.6498       0.6921    1424.39780       0.6499       0.6917
   1424.38254       0.6351       0.6624    1424.38254       0.6352       0.6619
   1424.36729       0.5843       0.6838    1424.36729       0.5844       0.6833
   1424.35203       0.6460       0.6729    1424.35203       0.6461       0.6724
   1424.33677       0.6192       0.6545    1424.33677       0.6193       0.6541
   1424.32151       0.6028       0.6051    1424.32151       0.6029       0.6047
   1424.30625       0.6268       0.6521    1424.30625       0.6269       0.6517
   1424.29099       0.6192       0.6827    1424.29099       0.6193       0.6822
   1424.27573       0.6090       0.6432    1424.27573       0.6091       0.6428
   1424.26047       0.6878       0.6904    1424.26047       0.6879       0.6899
   1424.24521       0.6569       0.7180    1424.24521       0.6570       0.7175
   1424.22996       0.6608       0.7237    1424.22996       0.6609       0.7232
   1424.21470       0.6256       0.6910    1424.21470       0.6257       0.6906
   1424.19944       0.6686       0.5987    1424.19944       0.6687       0.5983
   1424.18418       0.6393       0.6457    1424.18418       0.6394       0.6452
   1424.16892       0.6060       0.6490    1424.16892       0.6061       0.6485
   1424.15366       0.6092       0.7053    1424.15366       0.6093       0.7048
   1424.13840       0.5615       0.6726    1424.13840       0.5616       0.6721
   1424.12314       0.5980       0.7111    1424.12314       0.5981       0.7106
   1424.10789       0.5850       0.6864    1424.10789       0.5851       0.6859
   1424.09263       0.5865       0.7250    1424.09263       0.5866       0.7245
   1424.07737       0.6592       0.6575    1424.07737       0.6593       0.6570
   1424.06211       0.7171       0.7968    1424.06211       0.7172       0.7962
   1424.04685       0.6113       0.6245    1424.04685       0.6114       0.6240
   1424.03159       0.5839       0.6400    1424.03159       0.5840       0.6395
   1424.01633       0.6544       0.6853    1424.01633       0.6545       0.6848
   1424.00107       0.5614       0.6652    1424.00107       0.5614       0.6647
