#     FILENAME=Skynet_59340_ASTR344_M31_SashaLevina_59749_8627.A.onoff.cal.txt
#     BASENAME=Skynet_59340_ASTR344_M31_SashaLevina_59749_8627
#      CONTROL=SKYNET
#     PROJCODE=Skynet_59340_ASTR344_M31_SashaLevina_59749
#     DATAROOT=/raid/scratch/cyborg/SkynetData
#      DATADIR=/raid/scratch/cyborg
#     DATADIR2=/raid/scratch/cyborg/SkynetData/Skynet_59340_ASTR344_M31_SashaL
#     SCANNAME=2019_06_26_10
#     SRC_NAME=ASTR344_M31_SashaLevina
#     OBSERVER=haverford2_26746
#     DATE_OBS=2021-05-06T16:17:48.900
#        OBSID=59749
#      SCANNUM=8627
#          MJD=59340.6790382
#          UTC=58669
#     SCANTYPE=onoff
#     DATAMODE=HIRES
#     RECEIVER=Rx1_2
#      OBSFREQ=1395.0000
# Actual_FREQ1=1421.8000,
# Actual_FREQ2=1390.5500
#    LO1Tuning=6856.1800
#     RFFILTER=1355_1435
#        OBSBW=-15.6250
#     EFFBANDW=15.6250
#        NCHAN=1024
#    STARTCHAN=51
#     STOPCHAN=972
#         TINT=0.9999
#         TBIN=0.00419430
#       ACCLEN=2048 
#     DURATION=445.00
#     EXPOSURE=403.98
#        FOCUS=37.071
#       RA,DEC=00:42:58.46, 41:16:07.69
#      RA(deg)=12.67541
#     DEC(deg)=41.26870
#   WIDTH(deg)=3.0169x0.0060
#    AZIM(deg)=287.5962
#    ELEV(deg)=76.3254
#     COORDREF=RA_DEC_
#         HREF=10.6846
#         VREF=41.2687
#      RADESYS=FK5
#       OFFSYS=RADEC
#      EQUINOX=2000.00
#     IFATTENS=21.00, 14.00
#   BALANCELEV=1.200 
#   POWER_XLYR=[2.64, 2.1] 
#       VELDEF=RADI-OBS 
#     VELOCITY=0.000 
#         NPOL=2 
#      POLMODE=Linear 
#      POLTYPE=XXYY 
#      WARNING=None 
#     NOISECAL=HI 
#       PRECAL=5 
#      POSTCAL=5 
#     CRYOTEMP=15 
#      BOXTEMP=24 
#         TSYS=XX1:33.52, YY1:42.28
#         TSYS=XX2:37.47, YY2:38.99
#         TCAL=XX1:9.17, YY1:10.07
#         TCAL=XX2:9.14, YY2:9.87
# Calibrated spectra: Tsys*(ON-OFF)/OFF 
#                
#                
#Freq1(MHz)         XX1          YY1   Freq2(MHz)       XX2         YY2 
   1428.83430       0.6780       0.7364    1397.58430       0.6917       0.2035
   1428.81904       0.7026       0.7619    1397.56904       0.6918       0.2224
   1428.80378       0.6795       0.7888    1397.55378       0.7089       0.2589
   1428.78853       0.6685       0.8598    1397.53853       0.7252       0.2694
   1428.77327       0.6706       0.7992    1397.52327       0.7124       0.2443
   1428.75801       0.7049       0.7691    1397.50801       0.6243       0.1994
   1428.74275       0.7243       0.8426    1397.49275       0.7159       0.1967
   1428.72749       0.7355       0.7393    1397.47749       0.7110       0.2099
   1428.71223       0.6942       0.7968    1397.46223       0.7167       0.2101
   1428.69697       0.6686       0.7524    1397.44697       0.7782       0.2165
   1428.68171       0.7557       0.7428    1397.43171       0.6963       0.2636
   1428.66646       0.7158       0.7027    1397.41646       0.7130       0.2356
   1428.65120       0.6838       0.7742    1397.40120       0.6844       0.2574
   1428.63594       0.7055       0.7448    1397.38594       0.7588       0.2766
   1428.62068       0.6964       0.7520    1397.37068       0.7487       0.2848
   1428.60542       0.7270       0.7496    1397.35542       0.7213       0.2681
   1428.59016       0.7014       0.7478    1397.34016       0.7574       0.2575
   1428.57490       0.6967       0.7730    1397.32490       0.7504       0.2988
   1428.55964       0.7385       0.7767    1397.30964       0.6934       0.2699
   1428.54438       0.6686       0.7526    1397.29438       0.7498       0.3031
   1428.52913       0.6874       0.7391    1397.27913       0.7243       0.2823
   1428.51387       0.7183       0.7409    1397.26387       0.7805       0.2925
   1428.49861       0.6863       0.7752    1397.24861       0.7665       0.2552
   1428.48335       0.7158       0.7638    1397.23335       0.7744       0.3078
   1428.46809       0.7321       0.6879    1397.21809       0.7773       0.2552
   1428.45283       0.7265       0.7278    1397.20283       0.7306       0.3430
   1428.43757       0.7366       0.7107    1397.18757       0.7669       0.3157
   1428.42231       0.7345       0.6774    1397.17231       0.6781       0.3031
   1428.40706       0.6953       0.7839    1397.15706       0.6821       0.3207
   1428.39180       0.6917       0.7283    1397.14180       0.7554       0.3002
   1428.37654       0.7161       0.7175    1397.12654       0.6992       0.3164
   1428.36128       0.7790       0.6826    1397.11128       0.7530       0.3330
   1428.34602       0.7263       0.8040    1397.09602       0.8022       0.3667
   1428.33076       0.7586       0.7652    1397.08076       0.7620       0.4365
   1428.31550       0.7157       0.7811    1397.06550       0.7919       0.3711
   1428.30024       0.7189       0.7551    1397.05024       0.7373       0.2832
   1428.28499       0.7533       0.7285    1397.03499       0.7341       0.3418
   1428.26973       0.7231       0.8543    1397.01973       0.7859       0.3316
   1428.25447       0.7792       0.7401    1397.00447       0.7562       0.3563
   1428.23921       0.7282       0.7498    1396.98921       0.7703       0.3489
   1428.22395       0.7050       0.7120    1396.97395       0.8373       0.3660
   1428.20869       0.7393       0.7223    1396.95869       0.7551       0.3356
   1428.19343       0.6856       0.7194    1396.94343       0.7627       0.3216
   1428.17817       0.7553       0.7017    1396.92817       0.7623       0.3382
   1428.16292       0.7173       0.7733    1396.91292       0.7710       0.3527
   1428.14766       0.7413       0.7240    1396.89766       0.7786       0.3639
   1428.13240       0.7314       0.8199    1396.88240       0.7347       0.3777
   1428.11714       0.7407       0.7511    1396.86714       0.7232       0.3516
   1428.10188       0.7755       0.7087    1396.85188       0.7871       0.3546
   1428.08662       0.7752       0.7709    1396.83662       0.7967       0.3414
   1428.07136       0.7257       0.7199    1396.82136       0.7669       0.3692
   1428.05610       0.7318       0.8055    1396.80610       0.7468       0.3475
   1428.04084       0.7064       0.7225    1396.79084       0.7506       0.3115
   1428.02559       0.7164       0.7918    1396.77559       0.7531       0.4042
   1428.01033       0.7350       0.7247    1396.76033       0.7694       0.3799
   1427.99507       0.7731       0.7881    1396.74507       0.8121       0.3924
   1427.97981       0.7044       0.7771    1396.72981       0.7623       0.3917
   1427.96455       0.7906       0.7772    1396.71455       0.7107       0.3433
   1427.94929       0.7645       0.7119    1396.69929       0.7745       0.3871
   1427.93403       0.7297       0.7531    1396.68403       0.7719       0.4108
   1427.91877       0.7461       0.7701    1396.66877       0.7297       0.4338
   1427.90352       0.7460       0.7350    1396.65352       0.8074       0.4022
   1427.88826       0.7667       0.7720    1396.63826       0.7908       0.3656
   1427.87300       0.8115       0.7920    1396.62300       0.7295       0.3515
   1427.85774       0.7892       0.7612    1396.60774       0.8417       0.4051
   1427.84248       0.7795       0.7903    1396.59248       0.7664       0.4137
   1427.82722       0.7944       0.7692    1396.57722       0.7867       0.4215
   1427.81196       0.7738       0.7816    1396.56196       0.7989       0.3631
   1427.79670       0.7528       0.7794    1396.54670       0.7597       0.4314
   1427.78145       0.8122       0.7913    1396.53145       0.7661       0.4432
   1427.76619       0.7226       0.7364    1396.51619       0.7464       0.4127
   1427.75093       0.7994       0.6826    1396.50093       0.7897       0.3686
   1427.73567       0.7587       0.8019    1396.48567       0.7075       0.4328
   1427.72041       0.7669       0.7373    1396.47041       0.7829       0.3942
   1427.70515       0.7606       0.7532    1396.45515       0.7398       0.4317
   1427.68989       0.7962       0.6827    1396.43989       0.7698       0.4205
   1427.67463       0.7488       0.7703    1396.42463       0.7630       0.4286
   1427.65937       0.7781       0.7251    1396.40937       0.7493       0.4219
   1427.64412       0.7973       0.7460    1396.39412       0.8075       0.4283
   1427.62886       0.8303       0.7651    1396.37886       0.8078       0.4743
   1427.61360       0.7842       0.7335    1396.36360       0.7430       0.3975
   1427.59834       0.8333       0.8014    1396.34834       0.7636       0.4909
   1427.58308       0.7784       0.7804    1396.33308       0.7950       0.3915
   1427.56782       0.7760       0.7773    1396.31782       0.7723       0.4034
   1427.55256       0.7855       0.8218    1396.30256       0.7848       0.4712
   1427.53730       0.8018       0.7497    1396.28730       0.7726       0.4284
   1427.52205       0.8345       0.7338    1396.27205       0.7545       0.3974
   1427.50679       0.8015       0.7339    1396.25679       0.7506       0.4429
   1427.49153       0.8093       0.7550    1396.24153       0.8059       0.4603
   1427.47627       0.8004       0.7984    1396.22627       0.7302       0.4442
   1427.46101       0.8121       0.8365    1396.21101       0.7446       0.4281
   1427.44575       0.8056       0.7915    1396.19575       0.7302       0.4112
   1427.43049       0.7912       0.7225    1396.18049       0.7592       0.4251
   1427.41523       0.8272       0.8009    1396.16523       0.7103       0.4155
   1427.39998       0.8090       0.7741    1396.14998       0.7120       0.4358
   1427.38472       0.7882       0.7425    1396.13472       0.7459       0.4178
   1427.36946       0.8493       0.7304    1396.11946       0.7673       0.4561
   1427.35420       0.8142       0.7432    1396.10420       0.7421       0.4574
   1427.33894       0.8217       0.7388    1396.08894       0.7731       0.3913
   1427.32368       0.8498       0.8172    1396.07368       0.7039       0.4812
   1427.30842       0.8421       0.7225    1396.05842       0.7179       0.4011
   1427.29316       0.7876       0.7411    1396.04316       0.7689       0.5068
   1427.27791       0.8462       0.7670    1396.02791       0.7936       0.4670
   1427.26265       0.8905       0.8356    1396.01265       0.6822       0.4205
   1427.24739       0.7914       0.7901    1395.99739       0.7216       0.4485
   1427.23213       0.8433       0.7524    1395.98213       0.7909       0.4579
   1427.21687       0.7988       0.8020    1395.96687       0.7858       0.4065
   1427.20161       0.8778       0.7651    1395.95161       0.7484       0.4376
   1427.18635       0.8736       0.7438    1395.93635       0.7910       0.4519
   1427.17109       0.8449       0.7622    1395.92109       0.7859       0.4702
   1427.15583       0.8803       0.7549    1395.90583       0.7277       0.4645
   1427.14058       0.8837       0.7708    1395.89058       0.7507       0.4273
   1427.12532       0.8714       0.7679    1395.87532       0.7643       0.4599
   1427.11006       0.8170       0.7869    1395.86006       0.7810       0.4278
   1427.09480       0.8489       0.7955    1395.84480       0.7632       0.4025
   1427.07954       0.8846       0.7596    1395.82954       0.7650       0.4368
   1427.06428       0.8890       0.7624    1395.81428       0.7274       0.4092
   1427.04902       0.8618       0.7966    1395.79902       0.7676       0.4395
   1427.03376       0.8561       0.8107    1395.78376       0.7522       0.3718
   1427.01851       0.8884       0.7469    1395.76851       0.7521       0.4743
   1427.00325       0.8324       0.8204    1395.75325       0.7097       0.4652
   1426.98799       0.8764       0.8351    1395.73799       0.7113       0.4450
   1426.97273       0.8648       0.7710    1395.72273       0.7602       0.4719
   1426.95747       0.8538       0.8007    1395.70747       0.7243       0.3874
   1426.94221       0.8642       0.7476    1395.69221       0.7664       0.4931
   1426.92695       0.9120       0.7536    1395.67695       0.7743       0.4102
   1426.91169       0.8597       0.7657    1395.66169       0.7478       0.4130
   1426.89644       0.8441       0.7390    1395.64644       0.7298       0.4288
   1426.88118       0.8454       0.7356    1395.63118       0.7000       0.4093
   1426.86592       0.8795       0.7537    1395.61592       0.7411       0.4759
   1426.85066       0.8656       0.7536    1395.60066       0.7175       0.3923
   1426.83540       0.8290       0.7776    1395.58540       0.7367       0.4118
   1426.82014       0.8914       0.7306    1395.57014       0.7215       0.4248
   1426.80488       0.8771       0.7581    1395.55488       0.7358       0.4648
   1426.78962       0.8509       0.7722    1395.53962       0.7035       0.4845
   1426.77437       0.9551       0.7061    1395.52437       0.7371       0.3856
   1426.75911       0.8776       0.7784    1395.50911       0.7408       0.4439
   1426.74385       0.9095       0.7228    1395.49385       0.7815       0.4012
   1426.72859       0.8484       0.7602    1395.47859       0.7517       0.4536
   1426.71333       0.8547       0.8008    1395.46333       0.7410       0.4713
   1426.69807       0.8460       0.8185    1395.44807       0.7381       0.4762
   1426.68281       0.8771       0.7400    1395.43281       0.7743       0.3954
   1426.66755       0.9118       0.7687    1395.41755       0.7858       0.3740
   1426.65229       0.8771       0.7300    1395.40229       0.7410       0.4436
   1426.63704       0.8713       0.7703    1395.38704       0.7086       0.4396
   1426.62178       0.8586       0.7897    1395.37178       0.7097       0.4076
   1426.60652       0.9369       0.9472    1395.35652       0.6966       0.4268
   1426.59126       0.9048       0.7019    1395.34126       0.7651       0.4926
   1426.57600       0.8704       0.6694    1395.32600       0.7443       0.4306
   1426.56074       0.8614       0.6740    1395.31074       0.6911       0.3758
   1426.54548       0.8417       0.7134    1395.29548       0.7749       0.4190
   1426.53022       0.8626       0.7435    1395.28022       0.7645       0.3514
   1426.51497       0.9487       0.8143    1395.26497       0.7417       0.3934
   1426.49971       0.8658       0.7321    1395.24971       0.7218       0.3792
   1426.48445       0.9007       0.7102    1395.23445       0.6731       0.4236
   1426.46919       0.9568       0.6927    1395.21919       0.7577       0.4216
   1426.45393       0.9246       0.7393    1395.20393       0.7385       0.3992
   1426.43867       0.8960       0.7548    1395.18867       0.6798       0.3821
   1426.42341       0.8706       0.7453    1395.17341       0.7441       0.3784
   1426.40815       0.9104       0.8071    1395.15815       0.7061       0.4110
   1426.39290       0.8774       0.7587    1395.14290       0.7248       0.3479
   1426.37764       0.9209       0.7373    1395.12764       0.6977       0.3612
   1426.36238       0.8830       0.7343    1395.11238       0.7446       0.4085
   1426.34712       0.8893       0.7579    1395.09712       0.7220       0.3549
   1426.33186       0.8200       0.7337    1395.08186       0.6894       0.3931
   1426.31660       0.8561       0.7486    1395.06660       0.7104       0.3933
   1426.30134       0.8824       0.7125    1395.05134       0.7578       0.3361
   1426.28608       0.8893       0.7317    1395.03608       0.6708       0.4231
   1426.27083       0.9141       0.7184    1395.02083       0.7497       0.4102
   1426.25557       0.9125       0.6884    1395.00557       0.7705       0.4683
   1426.24031       0.8755       0.7451    1394.99031       0.7007       0.3773
   1426.22505       0.8926       0.7614    1394.97505       0.7443       0.3817
   1426.20979       0.8905       0.7056    1394.95979       0.6973       0.3938
   1426.19453       0.9235       0.7627    1394.94453       0.7421       0.4340
   1426.17927       0.9389       0.7236    1394.92927       0.6672       0.4283
   1426.16401       0.8679       0.7060    1394.91401       0.7052       0.3784
   1426.14875       0.9601       0.7557    1394.89875       0.6628       0.4057
   1426.13350       0.8916       0.7547    1394.88350       0.7092       0.4114
   1426.11824       0.8821       0.8025    1394.86824       0.6980       0.4035
   1426.10298       0.9031       0.7912    1394.85298       0.6967       0.3522
   1426.08772       0.9079       0.7975    1394.83772       0.7510       0.3505
   1426.07246       0.9431       0.7545    1394.82246       0.7109       0.3889
   1426.05720       0.9253       0.6692    1394.80720       0.6663       0.3304
   1426.04194       0.9184       0.7751    1394.79194       0.7064       0.3793
   1426.02668       0.9183       0.7616    1394.77668       0.6825       0.4029
   1426.01143       0.9139       0.7223    1394.76143       0.7957       0.3558
   1425.99617       0.8955       0.7369    1394.74617       0.7460       0.3969
   1425.98091       0.9268       0.7731    1394.73091       0.7163       0.3501
   1425.96565       0.9019       0.8094    1394.71565       0.6967       0.3706
   1425.95039       0.8990       0.6904    1394.70039       0.6908       0.4196
   1425.93513       0.9005       0.7286    1394.68513       0.7010       0.4060
   1425.91987       0.9354       0.7325    1394.66987       0.7314       0.3025
   1425.90461       0.9326       0.8356    1394.65461       0.7387       0.3613
   1425.88936       0.9129       0.6731    1394.63936       0.7258       0.3281
   1425.87410       0.9498       0.7317    1394.62410       0.7448       0.3761
   1425.85884       0.9149       0.7196    1394.60884       0.7345       0.3713
   1425.84358       0.9556       0.6858    1394.59358       0.7336       0.3823
   1425.82832       0.9081       0.7021    1394.57832       0.7684       0.3762
   1425.81306       0.9274       0.7334    1394.56306       0.7513       0.2668
   1425.79780       0.9132       0.6826    1394.54780       0.7633       0.3746
   1425.78254       0.9486       0.7621    1394.53254       0.6990       0.3601
   1425.76729       0.9145       0.7427    1394.51729       0.7151       0.3533
   1425.75203       0.9301       0.7609    1394.50203       0.6793       0.3644
   1425.73677       0.9161       0.7260    1394.48677       0.6638       0.3643
   1425.72151       0.9039       0.7401    1394.47151       0.7401       0.3679
   1425.70625       0.9451       0.6964    1394.45625       0.7924       0.3519
   1425.69099       0.9230       0.7509    1394.44099       0.7281       0.3971
   1425.67573       0.9145       0.7693    1394.42573       0.6884       0.3510
   1425.66047       0.9405       0.6963    1394.41047       0.6824       0.4149
   1425.64521       0.9644       0.7587    1394.39521       0.7768       0.3195
   1425.62996       0.9441       0.7300    1394.37996       0.7650       0.3455
   1425.61470       0.9522       0.7090    1394.36470       0.7233       0.3337
   1425.59944       0.9508       0.7473    1394.34944       0.6918       0.3337
   1425.58418       0.8572       0.7321    1394.33418       0.6800       0.3406
   1425.56892       0.9047       0.7371    1394.31892       0.7280       0.3195
   1425.55366       0.9730       0.7104    1394.30366       0.7335       0.3239
   1425.53840       0.9702       0.7720    1394.28840       0.6996       0.3479
   1425.52314       0.9027       0.7341    1394.27314       0.7645       0.3187
   1425.50789       0.9449       0.6986    1394.25789       0.7197       0.3672
   1425.49263       0.9135       0.6910    1394.24263       0.7530       0.3765
   1425.47737       0.9368       0.6996    1394.22737       0.7419       0.3437
   1425.46211       0.9729       0.7217    1394.21211       0.7391       0.3536
   1425.44685       0.9443       0.7773    1394.19685       0.7376       0.3976
   1425.43159       0.9251       0.7250    1394.18159       0.7082       0.3459
   1425.41633       0.9274       0.7177    1394.16633       0.6962       0.3735
