#     FILENAME=Skynet_59332_ASTR_344_M31_EmmyWisz_59470_8391.A.onoff.cal.txt
#     BASENAME=Skynet_59332_ASTR_344_M31_EmmyWisz_59470_8391
#      CONTROL=SKYNET
#     PROJCODE=Skynet_59332_ASTR_344_M31_EmmyWisz_59470
#     DATAROOT=/raid/scratch/cyborg/SkynetData
#      DATADIR=/raid/scratch/cyborg
#     DATADIR2=/raid/scratch/cyborg/SkynetData/Skynet_59332_ASTR_344_M31_EmmyW
#     SCANNAME=2019_06_26_10
#     SRC_NAME=ASTR_344_M31_EmmyWisz
#     OBSERVER=haverford2_26746
#     DATE_OBS=2021-04-28T13:20:44.010
#        OBSID=59470
#      SCANNUM=8391
#          MJD=59332.5560649
#          UTC=48044
#     SCANTYPE=onoff
#     DATAMODE=HIRES
#     RECEIVER=Rx1_2
#      OBSFREQ=1395.0000
# Actual_FREQ1=1421.8800,
# Actual_FREQ2=1390.6300
#    LO1Tuning=6856.2600
#     RFFILTER=1355_1435
#        OBSBW=-15.6250
#     EFFBANDW=15.6250
#        NCHAN=1024
#    STARTCHAN=51
#     STOPCHAN=972
#         TINT=0.9999
#         TBIN=0.00419430
#       ACCLEN=2048 
#     DURATION=444.00
#     EXPOSURE=402.98
#        FOCUS=37.093
#       RA,DEC=00:43:04.11, 41:16:07.18
#      RA(deg)=12.68046
#     DEC(deg)=41.26874
#   WIDTH(deg)=3.0152x0.0054
#    AZIM(deg)=71.9972
#    ELEV(deg)=63.1035
#     COORDREF=RA_DEC_
#         HREF=10.6846
#         VREF=41.2687
#      RADESYS=FK5
#       OFFSYS=RADEC
#      EQUINOX=2000.00
#     IFATTENS=20.00, 13.00
#   BALANCELEV=1.200 
#   POWER_XLYR=[1.28, 1.24] 
#       VELDEF=RADI-OBS 
#     VELOCITY=0.000 
#         NPOL=2 
#      POLMODE=Linear 
#      POLTYPE=XXYY 
#      WARNING=None 
#     NOISECAL=HI 
#       PRECAL=5 
#      POSTCAL=5 
#     CRYOTEMP=15 
#      BOXTEMP=24 
#         TSYS=XX1:29.53, YY1:38.88
#         TSYS=XX2:32.67, YY2:34.44
#         TCAL=XX1:9.17, YY1:10.07
#         TCAL=XX2:9.14, YY2:9.87
# Calibrated spectra: Tsys*(ON-OFF)/OFF 
#                
#                
#Freq1(MHz)         XX1          YY1   Freq2(MHz)       XX2         YY2 
   1428.91430       0.7013       0.3341    1397.66430       0.7403       0.3526
   1428.89904       0.6987       0.3225    1397.64904       0.7023       0.4111
   1428.88378       0.7189       0.3422    1397.63378       0.7035       0.3644
   1428.86853       0.7195       0.3301    1397.61853       0.7042       0.4047
   1428.85327       0.7189       0.3246    1397.60327       0.7765       0.3775
   1428.83801       0.7074       0.3406    1397.58801       0.7067       0.4140
   1428.82275       0.6753       0.3169    1397.57275       0.7237       0.4217
   1428.80749       0.7184       0.3006    1397.55749       0.6937       0.4216
   1428.79223       0.7188       0.3045    1397.54223       0.7878       0.4138
   1428.77697       0.6612       0.3019    1397.52697       0.7016       0.3868
   1428.76171       0.6535       0.3341    1397.51171       0.7343       0.4437
   1428.74646       0.6650       0.4179    1397.49646       0.7355       0.4195
   1428.73120       0.7408       0.3719    1397.48120       0.6869       0.4312
   1428.71594       0.6932       0.3337    1397.46594       0.6646       0.4292
   1428.70068       0.7098       0.3208    1397.45068       0.7127       0.4204
   1428.68542       0.7055       0.3443    1397.43542       0.7071       0.4303
   1428.67016       0.6735       0.2791    1397.42016       0.7194       0.4416
   1428.65490       0.6786       0.3270    1397.40490       0.7416       0.3857
   1428.63964       0.6641       0.2860    1397.38964       0.7114       0.4413
   1428.62438       0.6612       0.3304    1397.37438       0.7138       0.4761
   1428.60913       0.6876       0.3157    1397.35913       0.7378       0.4354
   1428.59387       0.6702       0.3002    1397.34387       0.7054       0.4986
   1428.57861       0.6672       0.3076    1397.32861       0.6927       0.4530
   1428.56335       0.6921       0.3060    1397.31335       0.7220       0.4581
   1428.54809       0.7045       0.3392    1397.29809       0.6715       0.4915
   1428.53283       0.6098       0.3425    1397.28283       0.7223       0.4661
   1428.51757       0.6459       0.2794    1397.26757       0.7120       0.4556
   1428.50231       0.6426       0.3173    1397.25231       0.6880       0.4570
   1428.48706       0.6896       0.2959    1397.23706       0.6846       0.4857
   1428.47180       0.6311       0.2751    1397.22180       0.7052       0.4714
   1428.45654       0.6823       0.3082    1397.20654       0.7361       0.4469
   1428.44128       0.6313       0.3256    1397.19128       0.7062       0.4630
   1428.42602       0.6473       0.2864    1397.17602       0.7327       0.5073
   1428.41076       0.6357       0.3098    1397.16076       0.7371       0.5460
   1428.39550       0.6381       0.3283    1397.14550       0.7272       0.4665
   1428.38024       0.6446       0.2984    1397.13024       0.6857       0.4813
   1428.36499       0.6570       0.3282    1397.11499       0.6772       0.4947
   1428.34973       0.6350       0.3502    1397.09973       0.6854       0.4552
   1428.33447       0.6260       0.3834    1397.08447       0.7397       0.5367
   1428.31921       0.6511       0.3306    1397.06921       0.7678       0.5247
   1428.30395       0.6594       0.2841    1397.05395       0.7127       0.5288
   1428.28869       0.6474       0.2830    1397.03869       0.7264       0.5139
   1428.27343       0.6689       0.3352    1397.02343       0.7251       0.4923
   1428.25817       0.6724       0.2796    1397.00817       0.7052       0.5510
   1428.24292       0.6742       0.3547    1396.99292       0.7391       0.5149
   1428.22766       0.6197       0.2739    1396.97766       0.7080       0.4989
   1428.21240       0.6265       0.3606    1396.96240       0.6931       0.5369
   1428.19714       0.6141       0.2767    1396.94714       0.6864       0.4916
   1428.18188       0.6536       0.4027    1396.93188       0.7124       0.5035
   1428.16662       0.5978       0.3180    1396.91662       0.7011       0.5142
   1428.15136       0.5923       0.2842    1396.90136       0.6981       0.5136
   1428.13610       0.6235       0.3268    1396.88610       0.7214       0.5058
   1428.12084       0.6252       0.3337    1396.87084       0.7321       0.5829
   1428.10559       0.5886       0.3402    1396.85559       0.6941       0.5270
   1428.09033       0.5944       0.3317    1396.84033       0.6839       0.5561
   1428.07507       0.6480       0.3150    1396.82507       0.7218       0.5186
   1428.05981       0.5670       0.3081    1396.80981       0.7390       0.5332
   1428.04455       0.5982       0.3527    1396.79455       0.6681       0.5269
   1428.02929       0.6646       0.3290    1396.77929       0.7277       0.5553
   1428.01403       0.5883       0.2794    1396.76403       0.7205       0.5130
   1427.99877       0.5996       0.3509    1396.74877       0.6915       0.5555
   1427.98352       0.6016       0.3445    1396.73352       0.7136       0.5620
   1427.96826       0.5959       0.3381    1396.71826       0.7008       0.5827
   1427.95300       0.6393       0.3035    1396.70300       0.6830       0.5601
   1427.93774       0.5975       0.3413    1396.68774       0.7199       0.5566
   1427.92248       0.5751       0.3079    1396.67248       0.7289       0.5469
   1427.90722       0.6075       0.2893    1396.65722       0.6835       0.5625
   1427.89196       0.5928       0.3110    1396.64196       0.6645       0.5655
   1427.87670       0.5281       0.2864    1396.62670       0.7110       0.6136
   1427.86145       0.5906       0.3162    1396.61145       0.7770       0.5402
   1427.84619       0.5833       0.3295    1396.59619       0.6776       0.5431
   1427.83093       0.5549       0.3188    1396.58093       0.6914       0.6214
   1427.81567       0.5662       0.3214    1396.56567       0.6939       0.5783
   1427.80041       0.5672       0.3871    1396.55041       0.7028       0.5641
   1427.78515       0.5595       0.4308    1396.53515       0.6641       0.5522
   1427.76989       0.5410       0.3870    1396.51989       0.7879       0.5662
   1427.75463       0.5442       0.3140    1396.50463       0.6781       0.5710
   1427.73937       0.5785       0.2959    1396.48937       0.6925       0.5675
   1427.72412       0.5995       0.3976    1396.47412       0.6650       0.5916
   1427.70886       0.5844       0.3263    1396.45886       0.6556       0.6469
   1427.69360       0.5673       0.3999    1396.44360       0.6702       0.6118
   1427.67834       0.5676       0.3468    1396.42834       0.7437       0.5639
   1427.66308       0.5887       0.3285    1396.41308       0.6529       0.5979
   1427.64782       0.5266       0.3345    1396.39782       0.6663       0.5803
   1427.63256       0.5819       0.3080    1396.38256       0.6612       0.5286
   1427.61730       0.5638       0.4016    1396.36730       0.6941       0.5673
   1427.60205       0.5862       0.3560    1396.35205       0.6740       0.5871
   1427.58679       0.5360       0.3243    1396.33679       0.7096       0.6004
   1427.57153       0.5480       0.3289    1396.32153       0.6947       0.6198
   1427.55627       0.5609       0.3508    1396.30627       0.6852       0.6208
   1427.54101       0.5915       0.3367    1396.29101       0.6820       0.5892
   1427.52575       0.5507       0.3629    1396.27575       0.6662       0.6207
   1427.51049       0.5662       0.3722    1396.26049       0.6607       0.5451
   1427.49523       0.5167       0.3354    1396.24523       0.6646       0.5755
   1427.47998       0.5422       0.3513    1396.22998       0.6987       0.5805
   1427.46472       0.5038       0.4049    1396.21472       0.6952       0.5708
   1427.44946       0.5632       0.3515    1396.19946       0.6834       0.5893
   1427.43420       0.5090       0.3766    1396.18420       0.6945       0.5374
   1427.41894       0.5310       0.3574    1396.16894       0.6941       0.6524
   1427.40368       0.5365       0.3780    1396.15368       0.7013       0.5930
   1427.38842       0.5324       0.3623    1396.13842       0.6612       0.5782
   1427.37316       0.5312       0.4151    1396.12316       0.6187       0.5912
   1427.35791       0.5268       0.3623    1396.10791       0.5990       0.5709
   1427.34265       0.5212       0.3746    1396.09265       0.6506       0.5893
   1427.32739       0.5182       0.3692    1396.07739       0.6703       0.5958
   1427.31213       0.4937       0.3237    1396.06213       0.6710       0.5932
   1427.29687       0.5121       0.3898    1396.04687       0.6530       0.5756
   1427.28161       0.4941       0.4000    1396.03161       0.6621       0.6213
   1427.26635       0.5181       0.3776    1396.01635       0.6412       0.5651
   1427.25109       0.5221       0.3884    1396.00109       0.6646       0.6405
   1427.23583       0.4719       0.3773    1395.98583       0.6729       0.5914
   1427.22058       0.5185       0.3634    1395.97058       0.6599       0.6294
   1427.20532       0.4811       0.3435    1395.95532       0.6792       0.5573
   1427.19006       0.5222       0.3695    1395.94006       0.6801       0.5748
   1427.17480       0.5311       0.3644    1395.92480       0.6680       0.5743
   1427.15954       0.4796       0.3839    1395.90954       0.6669       0.5927
   1427.14428       0.5497       0.3910    1395.89428       0.6383       0.5591
   1427.12902       0.4467       0.3658    1395.87902       0.6689       0.6156
   1427.11376       0.5460       0.3738    1395.86376       0.6654       0.6069
   1427.09851       0.4991       0.3597    1395.84851       0.6777       0.5396
   1427.08325       0.4416       0.3883    1395.83325       0.6467       0.5609
   1427.06799       0.4690       0.3994    1395.81799       0.6845       0.5807
   1427.05273       0.4738       0.3892    1395.80273       0.6680       0.5764
   1427.03747       0.4977       0.3607    1395.78747       0.6311       0.5500
   1427.02221       0.5119       0.3716    1395.77221       0.6272       0.5563
   1427.00695       0.4877       0.3026    1395.75695       0.6196       0.5411
   1426.99169       0.4846       0.3645    1395.74169       0.6500       0.5446
   1426.97644       0.4205       0.4268    1395.72644       0.6234       0.5535
   1426.96118       0.4681       0.3554    1395.71118       0.6462       0.6271
   1426.94592       0.4906       0.3791    1395.69592       0.6720       0.5624
   1426.93066       0.4553       0.3443    1395.68066       0.6273       0.5783
   1426.91540       0.4632       0.4158    1395.66540       0.6438       0.5463
   1426.90014       0.4665       0.4015    1395.65014       0.6637       0.5073
   1426.88488       0.4565       0.3749    1395.63488       0.6397       0.5738
   1426.86962       0.4772       0.3880    1395.61962       0.6425       0.5511
   1426.85437       0.4885       0.3860    1395.60437       0.6129       0.5164
   1426.83911       0.4769       0.3855    1395.58911       0.6446       0.4831
   1426.82385       0.4708       0.4496    1395.57385       0.6317       0.5517
   1426.80859       0.4415       0.4055    1395.55859       0.6702       0.5964
   1426.79333       0.4467       0.3671    1395.54333       0.6441       0.5999
   1426.77807       0.4422       0.3802    1395.52807       0.6176       0.5743
   1426.76281       0.4319       0.4113    1395.51281       0.6090       0.5144
   1426.74755       0.4248       0.4166    1395.49755       0.6251       0.5293
   1426.73229       0.4767       0.4467    1395.48229       0.6408       0.5397
   1426.71704       0.4876       0.3853    1395.46704       0.6284       0.5086
   1426.70178       0.4614       0.4024    1395.45178       0.6193       0.5385
   1426.68652       0.4549       0.3551    1395.43652       0.5875       0.4947
   1426.67126       0.3949       0.4320    1395.42126       0.6257       0.5065
   1426.65600       0.4559       0.4056    1395.40600       0.6797       0.4973
   1426.64074       0.4071       0.3300    1395.39074       0.5928       0.5721
   1426.62548       0.4281       0.3759    1395.37548       0.6175       0.4768
   1426.61022       0.5500       0.9972    1395.36022       0.6100       0.4671
   1426.59497       0.3917       0.3174    1395.34497       0.5883       0.4915
   1426.57971       0.3992       0.3478    1395.32971       0.6051       0.5156
   1426.56445       0.4402       0.2975    1395.31445       0.6198       0.4804
   1426.54919       0.4086       0.3853    1395.29919       0.5891       0.4828
   1426.53393       0.4751       0.3892    1395.28393       0.5777       0.4721
   1426.51867       0.4266       0.3828    1395.26867       0.5690       0.4888
   1426.50341       0.4668       0.4109    1395.25341       0.6428       0.5353
   1426.48815       0.4495       0.4090    1395.23815       0.6154       0.5047
   1426.47290       0.3864       0.4394    1395.22290       0.5725       0.4781
   1426.45764       0.4390       0.3948    1395.20764       0.5979       0.4375
   1426.44238       0.4629       0.4324    1395.19238       0.6013       0.4394
   1426.42712       0.4766       0.4210    1395.17712       0.6017       0.4131
   1426.41186       0.4028       0.4523    1395.16186       0.5919       0.4703
   1426.39660       0.4231       0.3744    1395.14660       0.6419       0.4554
   1426.38134       0.4193       0.4039    1395.13134       0.6332       0.4778
   1426.36608       0.4566       0.4989    1395.11608       0.5751       0.4709
   1426.35083       0.4989       0.4353    1395.10083       0.6372       0.4232
   1426.33557       0.3825       0.3789    1395.08557       0.6037       0.4810
   1426.32031       0.3769       0.3772    1395.07031       0.5764       0.4529
   1426.30505       0.3827       0.3745    1395.05505       0.6040       0.4351
   1426.28979       0.4068       0.4117    1395.03979       0.6310       0.4302
   1426.27453       0.4232       0.4370    1395.02453       0.5702       0.4477
   1426.25927       0.4380       0.3828    1395.00927       0.6307       0.4431
   1426.24401       0.4378       0.4338    1394.99401       0.6393       0.4281
   1426.22875       0.4265       0.4056    1394.97875       0.6126       0.4091
   1426.21350       0.4370       0.3836    1394.96350       0.6054       0.4428
   1426.19824       0.4047       0.3841    1394.94824       0.5999       0.3885
   1426.18298       0.4304       0.4391    1394.93298       0.5908       0.4907
   1426.16772       0.4215       0.4602    1394.91772       0.5871       0.4412
   1426.15246       0.4088       0.4081    1394.90246       0.6059       0.4074
   1426.13720       0.3797       0.4348    1394.88720       0.6110       0.4081
   1426.12194       0.4343       0.4095    1394.87194       0.6035       0.4072
   1426.10668       0.4002       0.4263    1394.85668       0.6107       0.4395
   1426.09143       0.3763       0.4607    1394.84143       0.6229       0.4355
   1426.07617       0.3793       0.3675    1394.82617       0.5893       0.3931
   1426.06091       0.4200       0.3791    1394.81091       0.5810       0.3706
   1426.04565       0.3811       0.4405    1394.79565       0.6212       0.4420
   1426.03039       0.4269       0.4298    1394.78039       0.6077       0.4099
   1426.01513       0.3590       0.4061    1394.76513       0.5740       0.4051
   1425.99987       0.4100       0.4545    1394.74987       0.5913       0.4226
   1425.98461       0.3826       0.4084    1394.73461       0.6255       0.3828
   1425.96936       0.4117       0.4168    1394.71936       0.6131       0.3669
   1425.95410       0.4304       0.3884    1394.70410       0.6005       0.3976
   1425.93884       0.3721       0.4377    1394.68884       0.6123       0.3918
   1425.92358       0.3679       0.4350    1394.67358       0.6515       0.4268
   1425.90832       0.4282       0.3840    1394.65832       0.5886       0.3899
   1425.89306       0.4049       0.3996    1394.64306       0.5874       0.3756
   1425.87780       0.3831       0.4015    1394.62780       0.6100       0.4084
   1425.86254       0.3780       0.4446    1394.61254       0.6151       0.3826
   1425.84729       0.4172       0.4483    1394.59729       0.5473       0.3514
   1425.83203       0.3648       0.4167    1394.58203       0.6031       0.3645
   1425.81677       0.3603       0.4251    1394.56677       0.6009       0.3993
   1425.80151       0.3882       0.4433    1394.55151       0.5666       0.3566
   1425.78625       0.4009       0.3660    1394.53625       0.6193       0.3874
   1425.77099       0.4353       0.4440    1394.52099       0.5761       0.3766
   1425.75573       0.3777       0.3976    1394.50573       0.5978       0.3389
   1425.74047       0.4102       0.4019    1394.49047       0.6196       0.3585
   1425.72521       0.3920       0.4608    1394.47521       0.5582       0.3522
   1425.70996       0.4118       0.4569    1394.45996       0.5376       0.3937
   1425.69470       0.4136       0.3913    1394.44470       0.5308       0.3498
   1425.67944       0.3904       0.4423    1394.42944       0.6125       0.3866
   1425.66418       0.4066       0.4091    1394.41418       0.5819       0.3774
   1425.64892       0.3912       0.4171    1394.39892       0.5730       0.3857
   1425.63366       0.4251       0.3970    1394.38366       0.6141       0.3414
   1425.61840       0.4204       0.4239    1394.36840       0.5614       0.3009
   1425.60314       0.3963       0.3836    1394.35314       0.5405       0.3474
   1425.58789       0.3684       0.3973    1394.33789       0.5338       0.3312
   1425.57263       0.3792       0.4014    1394.32263       0.5729       0.3247
   1425.55737       0.3973       0.4240    1394.30737       0.6257       0.3518
   1425.54211       0.4228       0.4263    1394.29211       0.5798       0.3965
   1425.52685       0.3645       0.4081    1394.27685       0.6257       0.3591
   1425.51159       0.4143       0.4334    1394.26159       0.5254       0.3651
   1425.49633       0.4164       0.4558    1394.24633       0.5798       0.3778
