#     FILENAME=Skynet_59202_M31_51605_573.A.onoff.cal.txt
#     BASENAME=Skynet_59202_M31_51605_573
#      CONTROL=SKYNET
#     PROJCODE=Skynet_59202_M31_51605
#     DATAROOT=/raid/scratch/cyborg/SkynetData
#      DATADIR=/raid/scratch/cyborg
#     DATADIR2=/raid/scratch/cyborg/SkynetData/Skynet_59202_M31_51605/Cyborg
#     SCANNAME=2019_06_26_10
#     SRC_NAME=M31
#     OBSERVER=haverford2_26746
#     DATE_OBS=2020-12-19T20:02:19.250
#        OBSID=51605
#      SCANNUM=573
#          MJD=59202.834945
#          UTC=72139
#     SCANTYPE=onoff
#     DATAMODE=HIRES
#     RECEIVER=Rx1_2
#      OBSFREQ=1395.0000
# Actual_FREQ1=1421.8800,
# Actual_FREQ2=1390.6300
#    LO1Tuning=6856.2600
#     RFFILTER=1355_1435
#        OBSBW=-15.6250
#     EFFBANDW=15.6250
#        NCHAN=1024
#    STARTCHAN=51
#     STOPCHAN=972
#         TINT=0.9999
#         TBIN=0.00013107
#       ACCLEN=2048 
#     DURATION=452.00
#     EXPOSURE=401.98
#        FOCUS=37.071
#       RA,DEC=00:43:00.33, 41:16:08.83
#      RA(deg)=12.68587
#     DEC(deg)=41.26923
#   WIDTH(deg)=3.0230x0.0090
#    AZIM(deg)=65.0673
#    ELEV(deg)=42.9671
#     COORDREF=RA_DEC_
#         HREF=10.6846
#         VREF=41.2692
#      RADESYS=FK5
#       OFFSYS=RADEC
#      EQUINOX=2000.00
#     IFATTENS=22.00, 15.00
#   BALANCELEV=1.200 
#   POWER_XLYR=[1.82, 3.18] 
#       VELDEF=RADI-OBS 
#     VELOCITY=0.000 
#         NPOL=2 
#      POLMODE=Linear 
#      POLTYPE=XXYY 
#      WARNING=None 
#     NOISECAL=HI 
#       PRECAL=5 
#      POSTCAL=5 
#     CRYOTEMP=23 
#      BOXTEMP=32 
#         TSYS=XX1:38.36, YY1:49.89
#         TSYS=XX2:42.27, YY2:43.72
#         TCAL=XX1:9.17, YY1:10.07
#         TCAL=XX2:9.14, YY2:9.87
# Calibrated spectra: Tsys*(ON-OFF)/OFF 
#                
#                
#Freq1(MHz)         XX1          YY1   Freq2(MHz)       XX2         YY2 
   1428.91430       1.0916       0.8580    1397.66430       0.9548       1.3420
   1428.89904       1.0710       0.8879    1397.64904       0.9971       1.2870
   1428.88378       1.0550       0.8952    1397.63378       1.0366       1.3451
   1428.86853       1.1243       0.8752    1397.61853       1.0004       1.3748
   1428.85327       1.0954       0.8645    1397.60327       0.9622       1.3501
   1428.83801       1.1006       0.7881    1397.58801       0.9179       1.3007
   1428.82275       1.1083       0.8748    1397.57275       0.9711       1.3231
   1428.80749       1.0739       0.8651    1397.55749       0.8905       1.3393
   1428.79223       1.0382       0.8268    1397.54223       0.8906       1.2452
   1428.77697       1.0499       0.8429    1397.52697       0.8812       1.3333
   1428.76171       1.0457       0.8362    1397.51171       0.8742       1.2644
   1428.74646       1.1010       0.8180    1397.49646       0.8952       1.3046
   1428.73120       1.0911       0.8684    1397.48120       0.8446       1.2578
   1428.71594       1.0837       0.8668    1397.46594       0.8062       1.3140
   1428.70068       1.0815       0.9426    1397.45068       0.8662       1.2451
   1428.68542       1.1082       0.7713    1397.43542       0.6882       1.2467
   1428.67016       1.0987       0.7291    1397.42016       0.7394       1.2258
   1428.65490       1.0466       0.8657    1397.40490       0.5960       1.2320
   1428.63964       1.0655       0.8708    1397.38964       0.7970       1.2356
   1428.62438       1.0718       0.8594    1397.37438       0.6871       1.2027
   1428.60913       1.0334       0.8005    1397.35913       0.6818       1.1748
   1428.59387       1.0341       0.7770    1397.34387       0.5801       1.1264
   1428.57861       1.0107       0.7801    1397.32861       0.3992       1.0786
   1428.56335       1.0602       0.8569    1397.31335       0.5774       1.1012
   1428.54809       1.0357       0.7606    1397.29809       0.5062       1.1168
   1428.53283       1.0353       0.8675    1397.28283       0.5552       1.0617
   1428.51757       0.9971       0.8541    1397.26757       0.4788       1.1174
   1428.50231       1.0652       0.8012    1397.25231       0.4169       1.0217
   1428.48706       1.0389       0.7609    1397.23706       0.3267       1.1205
   1428.47180       0.9957       0.8195    1397.22180       0.1861       1.0323
   1428.45654       0.9927       0.8120    1397.20654       0.3838       1.0903
   1428.44128       0.9840       0.8544    1397.19128       0.5871       1.0793
   1428.42602       1.0353       0.8455    1397.17602       0.5205       1.0774
   1428.41076       1.0014       0.8303    1397.16076       0.3577       0.9541
   1428.39550       1.0125       0.7679    1397.14550       0.1330       0.9860
   1428.38024       0.9803       0.8459    1397.13024       0.2870       0.9604
   1428.36499       0.9905       0.8318    1397.11499       0.2600       1.0588
   1428.34973       1.0183       0.7858    1397.09973       0.2981       0.9680
   1428.33447       1.0625       0.8263    1397.08447       0.4276       1.0100
   1428.31921       0.9997       0.8037    1397.06921       0.2517       1.0136
   1428.30395       1.0428       0.8279    1397.05395       0.4176       0.9433
   1428.28869       1.0079       0.7648    1397.03869       0.1588       1.0016
   1428.27343       0.9449       0.7697    1397.02343       0.2228       0.9021
   1428.25817       0.9023       0.7933    1397.00817       0.2331       0.9983
   1428.24292       1.0027       0.7523    1396.99292       0.4044       1.0601
   1428.22766       1.0091       0.7520    1396.97766       0.4647       0.9620
   1428.21240       0.9539       0.8177    1396.96240       0.2299       0.8863
   1428.19714       0.9260       0.8004    1396.94714       0.2753       0.9187
   1428.18188       0.9821       0.7694    1396.93188       0.3839       1.0975
   1428.16662       0.9971       0.8353    1396.91662       0.2209       0.7487
   1428.15136       0.9568       0.8296    1396.90136       0.3342       0.8437
   1428.13610       0.9260       0.7858    1396.88610       0.4366       0.9192
   1428.12084       0.9567       0.7553    1396.87084       0.3419       0.8728
   1428.10559       0.9554       0.7456    1396.85559       0.3004       0.9115
   1428.09033       0.9699       0.7299    1396.84033       0.4277       0.8548
   1428.07507       0.9387       0.7746    1396.82507       0.3263       0.8666
   1428.05981       0.9323       0.7023    1396.80981       0.4525       0.8834
   1428.04455       0.9282       0.8338    1396.79455       0.5298       0.9642
   1428.02929       0.9855       0.7043    1396.77929       0.4416       0.8831
   1428.01403       0.9001       0.7111    1396.76403       0.3646       0.8779
   1427.99877       0.9761       0.7250    1396.74877       0.5935       0.8927
   1427.98352       0.8993       0.8087    1396.73352       0.4845       0.9500
   1427.96826       0.9107       0.7410    1396.71826       0.5291       0.9374
   1427.95300       0.9081       0.7488    1396.70300       0.4933       0.8814
   1427.93774       0.8407       0.6887    1396.68774       0.6069       0.8440
   1427.92248       0.8909       0.7740    1396.67248       0.6997       0.9618
   1427.90722       0.8982       0.7389    1396.65722       0.5754       0.9199
   1427.89196       0.8649       0.7360    1396.64196       0.5538       0.9080
   1427.87670       0.8817       0.7436    1396.62670       0.6382       0.9556
   1427.86145       0.8736       0.7054    1396.61145       0.7189       0.9516
   1427.84619       0.8866       0.6778    1396.59619       0.6776       0.9185
   1427.83093       0.9144       0.7520    1396.58093       0.6357       0.9165
   1427.81567       0.8803       0.7377    1396.56567       0.6824       0.9165
   1427.80041       0.9127       0.7515    1396.55041       0.7879       0.9640
   1427.78515       0.9254       0.6900    1396.53515       0.8525       0.8841
   1427.76989       0.8967       0.6946    1396.51989       0.7313       0.9880
   1427.75463       0.8506       0.6961    1396.50463       0.7757       0.8710
   1427.73937       0.8912       0.7517    1396.48937       0.7669       0.9287
   1427.72412       0.8847       0.7087    1396.47412       0.8203       0.9371
   1427.70886       0.8774       0.7259    1396.45886       0.9162       0.9708
   1427.69360       0.8554       0.7050    1396.44360       0.8795       0.9793
   1427.67834       0.8407       0.6603    1396.42834       0.8268       0.9643
   1427.66308       0.7504       0.7016    1396.41308       0.8584       0.9343
   1427.64782       0.8249       0.7322    1396.39782       0.8126       0.9811
   1427.63256       0.8684       0.6804    1396.38256       0.8631       0.9216
   1427.61730       0.8848       0.6765    1396.36730       0.9040       0.9451
   1427.60205       0.8561       0.8156    1396.35205       0.8546       0.9433
   1427.58679       0.7914       0.7039    1396.33679       0.9401       1.0004
   1427.57153       0.8937       0.6800    1396.32153       0.9474       0.8807
   1427.55627       0.8344       0.7280    1396.30627       0.9414       0.9683
   1427.54101       0.8126       0.6313    1396.29101       0.9850       1.0145
   1427.52575       0.7826       0.6613    1396.27575       0.9889       0.9672
   1427.51049       0.8226       0.6502    1396.26049       1.0361       0.9397
   1427.49523       0.8544       0.7039    1396.24523       0.9137       0.9358
   1427.47998       0.8420       0.7462    1396.22998       0.9992       0.9440
   1427.46472       0.8307       0.7691    1396.21472       1.0051       0.9830
   1427.44946       0.8399       0.6399    1396.19946       0.9472       1.0322
   1427.43420       0.7713       0.6741    1396.18420       1.0035       1.0177
   1427.41894       0.7427       0.6352    1396.16894       0.9984       1.0225
   1427.40368       0.8073       0.6869    1396.15368       0.9944       1.0181
   1427.38842       0.7680       0.6793    1396.13842       0.9687       0.9464
   1427.37316       0.7945       0.6614    1396.12316       0.9993       0.9720
   1427.35791       0.7871       0.6863    1396.10791       1.0416       1.0348
   1427.34265       0.7949       0.6849    1396.09265       0.9847       1.0346
   1427.32739       0.7899       0.6311    1396.07739       1.0047       1.0092
   1427.31213       0.8583       0.6619    1396.06213       1.0194       1.0227
   1427.29687       0.8225       0.6696    1396.04687       1.0186       0.9989
   1427.28161       0.7775       0.6516    1396.03161       1.0143       1.0159
   1427.26635       0.7154       0.6634    1396.01635       0.9595       0.9650
   1427.25109       0.6945       0.6932    1396.00109       1.0245       1.0220
   1427.23583       0.7170       0.7329    1395.98583       1.0600       1.0729
   1427.22058       0.7680       0.6744    1395.97058       0.9761       1.0274
   1427.20532       0.7562       0.6740    1395.95532       0.9866       0.9892
   1427.19006       0.7748       0.6617    1395.94006       1.0188       0.9727
   1427.17480       0.7191       0.6979    1395.92480       1.0464       1.0289
   1427.15954       0.7155       0.6131    1395.90954       1.0301       1.0581
   1427.14428       0.6951       0.6709    1395.89428       1.0731       1.0027
   1427.12902       0.6988       0.7019    1395.87902       1.0859       1.0398
   1427.11376       0.6739       0.6734    1395.86376       1.0912       1.0435
   1427.09851       0.8109       0.6164    1395.84851       1.0354       0.9788
   1427.08325       0.7062       0.6367    1395.83325       0.9934       1.0801
   1427.06799       0.7152       0.6223    1395.81799       1.0269       1.0660
   1427.05273       0.6975       0.6316    1395.80273       0.9677       0.9913
   1427.03747       0.6749       0.6637    1395.78747       1.0149       1.0028
   1427.02221       0.6917       0.6611    1395.77221       0.9925       1.0755
   1427.00695       0.6678       0.7102    1395.75695       0.9899       1.0613
   1426.99169       0.6932       0.6520    1395.74169       1.0058       1.0641
   1426.97644       0.6585       0.6468    1395.72644       1.0140       1.0834
   1426.96118       0.6498       0.6679    1395.71118       0.9967       1.0979
   1426.94592       0.6247       0.6246    1395.69592       1.0008       1.1257
   1426.93066       0.6492       0.7185    1395.68066       1.0480       1.1334
   1426.91540       0.6830       0.7553    1395.66540       1.0330       1.0990
   1426.90014       0.6937       0.6759    1395.65014       1.0165       1.1353
   1426.88488       0.7030       0.6543    1395.63488       1.0454       1.1454
   1426.86962       0.6332       0.6061    1395.61962       0.9969       1.0660
   1426.85437       0.6415       0.7511    1395.60437       1.0239       1.0935
   1426.83911       0.6664       0.7126    1395.58911       1.0304       1.0883
   1426.82385       0.6704       0.6995    1395.57385       1.0342       1.1162
   1426.80859       0.6425       0.6324    1395.55859       1.0136       1.1681
   1426.79333       0.6040       0.6528    1395.54333       0.9968       1.0507
   1426.77807       0.5658       0.6665    1395.52807       1.0035       1.0527
   1426.76281       0.6444       0.6498    1395.51281       1.0329       1.0831
   1426.74755       0.5970       0.6649    1395.49755       1.0658       1.1023
   1426.73229       0.6700       0.5928    1395.48229       1.0504       1.1193
   1426.71704       0.5879       0.6683    1395.46704       1.0564       1.1542
   1426.70178       0.6173       0.6176    1395.45178       1.0124       1.0786
   1426.68652       0.6157       0.6758    1395.43652       1.0238       1.1337
   1426.67126       0.6515       0.6990    1395.42126       1.0456       1.1208
   1426.65600       0.5958       0.7199    1395.40600       0.9839       1.1784
   1426.64074       0.6717       0.6490    1395.39074       0.9924       1.1721
   1426.62548       0.5179       0.7545    1395.37548       1.0366       1.1663
   1426.61022       0.5732       0.7000    1395.36022       0.9928       1.1865
   1426.59497       0.5654       0.6606    1395.34497       0.9643       1.1525
   1426.57971       0.5298       0.6487    1395.32971       1.0083       1.1514
   1426.56445       0.6157       0.6966    1395.31445       1.0229       1.1106
   1426.54919       0.6270       0.7049    1395.29919       1.0018       1.1295
   1426.53393       0.5355       0.6982    1395.28393       1.0096       1.1597
   1426.51867       0.5812       0.6994    1395.26867       1.0091       1.1010
   1426.50341       0.5585       0.6520    1395.25341       1.0322       1.2277
   1426.48815       0.5711       0.6727    1395.23815       0.9802       1.1135
   1426.47290       0.6095       0.7148    1395.22290       0.9962       1.1914
   1426.45764       0.5466       0.7073    1395.20764       1.0194       1.1306
   1426.44238       0.5744       0.7015    1395.19238       0.9445       1.0953
   1426.42712       0.6066       0.7517    1395.17712       1.0425       1.1302
   1426.41186       0.5400       0.7429    1395.16186       0.9848       1.1723
   1426.39660       0.5569       0.6831    1395.14660       1.0302       1.1948
   1426.38134       0.5985       0.7810    1395.13134       1.0214       1.1767
   1426.36608       0.5572       0.7326    1395.11608       0.9714       1.2461
   1426.35083       0.5287       0.7754    1395.10083       0.9481       1.2339
   1426.33557       0.5695       0.6911    1395.08557       1.0421       1.2435
   1426.32031       0.5810       0.7570    1395.07031       1.0186       1.1774
   1426.30505       0.4918       0.7509    1395.05505       0.9775       1.2069
   1426.28979       0.5198       0.7489    1395.03979       1.0494       1.1914
   1426.27453       0.5212       0.8279    1395.02453       1.0002       1.1621
   1426.25927       0.4990       0.7800    1395.00927       0.9934       1.1795
   1426.24401       0.4841       0.7481    1394.99401       0.9554       1.2190
   1426.22875       0.4779       0.7623    1394.97875       0.9781       1.2234
   1426.21350       0.5204       0.7705    1394.96350       1.0019       1.1471
   1426.19824       0.5449       0.8303    1394.94824       0.9840       1.1968
   1426.18298       0.5373       0.7164    1394.93298       0.9337       1.1767
   1426.16772       0.4888       0.7845    1394.91772       0.9278       1.1826
   1426.15246       0.5214       0.7431    1394.90246       0.9741       1.2565
   1426.13720       0.4855       0.7387    1394.88720       0.9886       1.2314
   1426.12194       0.5346       0.8465    1394.87194       1.0020       1.2704
   1426.10668       0.4538       0.8362    1394.85668       0.9405       1.2437
   1426.09143       0.4756       0.8009    1394.84143       0.9876       1.2362
   1426.07617       0.4708       0.8149    1394.82617       0.9362       1.2315
   1426.06091       0.4562       0.7911    1394.81091       0.8910       1.2465
   1426.04565       0.4783       0.8416    1394.79565       0.9959       1.1970
   1426.03039       0.4008       0.8333    1394.78039       0.9329       1.2352
   1426.01513       0.4976       0.8806    1394.76513       0.9671       1.3455
   1425.99987       0.4980       0.8660    1394.74987       0.9778       1.2531
   1425.98461       0.4953       0.9049    1394.73461       0.9602       1.2352
   1425.96936       0.4235       0.8032    1394.71936       0.9415       1.2632
   1425.95410       0.4620       0.8118    1394.70410       0.9931       1.2632
   1425.93884       0.4660       0.7910    1394.68884       0.9955       1.2828
   1425.92358       0.4239       0.8526    1394.67358       0.9774       1.2430
   1425.90832       0.4558       0.8290    1394.65832       0.9447       1.3226
   1425.89306       0.4393       0.8820    1394.64306       0.9379       1.3373
   1425.87780       0.4754       0.8479    1394.62780       0.9996       1.2318
   1425.86254       0.4836       0.8855    1394.61254       1.0079       1.2287
   1425.84729       0.4298       0.8612    1394.59729       0.9677       1.2916
   1425.83203       0.4277       0.8614    1394.58203       0.9746       1.2767
   1425.81677       0.4113       0.8778    1394.56677       0.9686       1.3015
   1425.80151       0.3813       0.8524    1394.55151       0.9897       1.2831
   1425.78625       0.4214       0.8635    1394.53625       0.9733       1.2637
   1425.77099       0.3835       0.8889    1394.52099       0.9124       1.3323
   1425.75573       0.4042       0.8780    1394.50573       0.9618       1.3231
   1425.74047       0.4965       0.9406    1394.49047       0.9689       1.3205
   1425.72521       0.4130       0.8691    1394.47521       0.9773       1.3484
   1425.70996       0.4544       0.9071    1394.45996       0.9505       1.3634
   1425.69470       0.5146       0.8970    1394.44470       0.9457       1.3289
   1425.67944       0.4389       0.9059    1394.42944       0.9111       1.2791
   1425.66418       0.3608       0.8713    1394.41418       0.9154       1.2921
   1425.64892       0.3827       0.9484    1394.39892       0.8885       1.3113
   1425.63366       0.4457       0.9336    1394.38366       0.9357       1.3361
   1425.61840       0.4355       0.8971    1394.36840       0.9066       1.3515
   1425.60314       0.3979       0.9046    1394.35314       0.9817       1.3418
   1425.58789       0.4031       0.9608    1394.33789       0.9463       1.3385
   1425.57263       0.3836       0.9810    1394.32263       0.9329       1.2725
   1425.55737       0.4102       0.8933    1394.30737       0.9801       1.3267
   1425.54211       0.4191       1.0366    1394.29211       0.9647       1.3254
   1425.52685       0.3648       0.9347    1394.27685       0.8993       1.2950
   1425.51159       0.4079       1.0076    1394.26159       0.9023       1.3358
   1425.49633       0.3897       0.9590    1394.24633       0.9079       1.3362
   1425.48107       0.4227       0.9460    1394.23107       0.9986       1.4053
