#     FILENAME=Skynet_59002_M31_5kpcRadiusB_45050_54639.A.onoff.cal.txt
#     BASENAME=Skynet_59002_M31_5kpcRadiusB_45050_54639
#      CONTROL=SKYNET
#     PROJCODE=Skynet_59002_M31_5kpcRadiusB_45050
#     DATAROOT=/raid/scratch/cyborg/SkynetData
#      DATADIR=/raid/scratch/cyborg
#     DATADIR2=/raid/scratch/cyborg/SkynetData/Skynet_59002_M31_5kpcRadiusB_45
#     SCANNAME=2018_05_24_20
#     SRC_NAME=M31_5kpcRadiusB
#     OBSERVER=unioncollege_21317
#     DATE_OBS=2020-06-02T08:02:08.380
#        OBSID=45050
#      SCANNUM=54639
#          MJD=59002.3348192
#          UTC=28928
#     SCANTYPE=onoff
#     DATAMODE=HIRES
#     RECEIVER=Rx1_2
#      OBSFREQ=1395.0000
# Actual_FREQ1=1423.0000,
# Actual_FREQ2=1423.0000
#    LO1Tuning=6873.0000
#     RFFILTER=1355_1435
#        OBSBW=-15.6250
#     EFFBANDW=15.6250
#        NCHAN=1024
#    STARTCHAN=51
#     STOPCHAN=972
#         TINT=0.3000
#         TBIN=0.00419430
#       ACCLEN=2048 
#     DURATION=169.50
#     EXPOSURE=125.98
#        FOCUS=37.071
#       RA,DEC=00:41:48.60, 40:58:42.96
#      RA(deg)=9.06752
#     DEC(deg)=40.97856
#   WIDTH(deg)=2.0411x0.0226
#    AZIM(deg)=60.3407
#    ELEV(deg)=32.6331
#     COORDREF=RA_DEC_
#         HREF=10.3830
#         VREF=40.9786
#      RADESYS=FK5
#       OFFSYS=RADEC
#      EQUINOX=2000.00
#     IFATTENS=21.00, 5.00
#   BALANCELEV=1.200 
#   POWER_XLYR=[1.25, 1.04] 
#       VELDEF=RADI-OBS 
#     VELOCITY=0.000 
#         NPOL=2 
#      POLMODE=Linear 
#      POLTYPE=XXYY 
#      WARNING=None 
#     NOISECAL=HI 
#       PRECAL=2 
#      POSTCAL=2 
#     CRYOTEMP=14 
#      BOXTEMP=25 
#         TSYS=XX1:37.34, YY1:37.37
#         TSYS=XX2:37.33, YY2:37.37
#         TCAL=XX1:9.18, YY1:10.14
#         TCAL=XX2:9.18, YY2:10.14
# Calibrated spectra: Tsys*(ON-OFF)/OFF 
#                
#                
#Freq1(MHz)         XX1          YY1   Freq2(MHz)       XX2         YY2 
   1430.03430       0.4012       0.6005    1430.03430       0.4012       0.6005
   1430.01904       0.4885       0.5125    1430.01904       0.4884       0.5125
   1430.00378       0.6150       0.6126    1430.00378       0.6149       0.6127
   1429.98853       0.4592       0.5826    1429.98853       0.4591       0.5827
   1429.97327       0.3460       0.5389    1429.97327       0.3460       0.5389
   1429.95801       0.5318       0.6028    1429.95801       0.5318       0.6029
   1429.94275       0.4255       0.5755    1429.94275       0.4254       0.5756
   1429.92749       0.5503       0.5861    1429.92749       0.5503       0.5861
   1429.91223       0.4480       0.5939    1429.91223       0.4479       0.5940
   1429.89697       0.5540       0.5726    1429.89697       0.5540       0.5727
   1429.88171       0.4762       0.5700    1429.88171       0.4762       0.5700
   1429.86646       0.6136       0.5535    1429.86646       0.6136       0.5535
   1429.85120       0.5170       0.5979    1429.85120       0.5169       0.5979
   1429.83594       0.5576       0.6618    1429.83594       0.5575       0.6618
   1429.82068       0.5276       0.5967    1429.82068       0.5275       0.5967
   1429.80542       0.5655       0.6699    1429.80542       0.5655       0.6699
   1429.79016       0.4998       0.5739    1429.79016       0.4997       0.5739
   1429.77490       0.5033       0.5271    1429.77490       0.5033       0.5271
   1429.75964       0.3974       0.5150    1429.75964       0.3974       0.5150
   1429.74438       0.4605       0.6234    1429.74438       0.4605       0.6235
   1429.72913       0.4976       0.5513    1429.72913       0.4975       0.5513
   1429.71387       0.5365       0.6275    1429.71387       0.5364       0.6276
   1429.69861       0.5428       0.5844    1429.69861       0.5427       0.5844
   1429.68335       0.4754       0.5978    1429.68335       0.4753       0.5978
   1429.66809       0.4283       0.5431    1429.66809       0.4283       0.5431
   1429.65283       0.4296       0.4871    1429.65283       0.4296       0.4872
   1429.63757       0.4655       0.5882    1429.63757       0.4654       0.5882
   1429.62231       0.4848       0.5209    1429.62231       0.4848       0.5210
   1429.60706       0.4838       0.4451    1429.60706       0.4838       0.4452
   1429.59180       0.4924       0.5229    1429.59180       0.4923       0.5229
   1429.57654       0.5426       0.6007    1429.57654       0.5425       0.6008
   1429.56128       0.5131       0.5774    1429.56128       0.5131       0.5774
   1429.54602       0.5087       0.6159    1429.54602       0.5086       0.6160
   1429.53076       0.6577       0.5959    1429.53076       0.6576       0.5959
   1429.51550       0.5138       0.5515    1429.51550       0.5137       0.5516
   1429.50024       0.4998       0.5490    1429.50024       0.4997       0.5490
   1429.48499       0.4624       0.5558    1429.48499       0.4623       0.5559
   1429.46973       0.4988       0.5519    1429.46973       0.4987       0.5520
   1429.45447       0.5426       0.5807    1429.45447       0.5426       0.5808
   1429.43921       0.5443       0.5862    1429.43921       0.5443       0.5862
   1429.42395       0.5396       0.5528    1429.42395       0.5395       0.5529
   1429.40869       0.5606       0.5569    1429.40869       0.5606       0.5569
   1429.39343       0.4814       0.5388    1429.39343       0.4813       0.5389
   1429.37817       0.4854       0.5015    1429.37817       0.4853       0.5016
   1429.36292       0.6016       0.5365    1429.36292       0.6016       0.5365
   1429.34766       0.5552       0.5602    1429.34766       0.5551       0.5603
   1429.33240       0.5543       0.4856    1429.33240       0.5542       0.4856
   1429.31714       0.4921       0.5619    1429.31714       0.4920       0.5620
   1429.30188       0.3930       0.6145    1429.30188       0.3929       0.6146
   1429.28662       0.5747       0.5358    1429.28662       0.5746       0.5358
   1429.27136       0.4510       0.6264    1429.27136       0.4509       0.6265
   1429.25610       0.5609       0.5527    1429.25610       0.5608       0.5527
   1429.24084       0.5213       0.5044    1429.24084       0.5213       0.5045
   1429.22559       0.5513       0.5565    1429.22559       0.5512       0.5565
   1429.21033       0.5078       0.6565    1429.21033       0.5078       0.6565
   1429.19507       0.5392       0.5901    1429.19507       0.5391       0.5901
   1429.17981       0.4501       0.6109    1429.17981       0.4500       0.6109
   1429.16455       0.4973       0.5578    1429.16455       0.4972       0.5578
   1429.14929       0.5388       0.5215    1429.14929       0.5387       0.5215
   1429.13403       0.5326       0.5960    1429.13403       0.5325       0.5960
   1429.11877       0.5258       0.6233    1429.11877       0.5257       0.6233
   1429.10352       0.4715       0.5135    1429.10352       0.4715       0.5135
   1429.08826       0.5099       0.4622    1429.08826       0.5098       0.4623
   1429.07300       0.4873       0.4980    1429.07300       0.4873       0.4980
   1429.05774       0.5770       0.5207    1429.05774       0.5770       0.5207
   1429.04248       0.4983       0.5057    1429.04248       0.4983       0.5058
   1429.02722       0.5763       0.4480    1429.02722       0.5762       0.4480
   1429.01196       0.5447       0.4989    1429.01196       0.5446       0.4989
   1428.99670       0.5640       0.5017    1428.99670       0.5639       0.5017
   1428.98145       0.5370       0.5300    1428.98145       0.5369       0.5300
   1428.96619       0.5666       0.4057    1428.96619       0.5665       0.4057
   1428.95093       0.5706       0.4567    1428.95093       0.5705       0.4567
   1428.93567       0.5051       0.5647    1428.93567       0.5050       0.5647
   1428.92041       0.5669       0.5166    1428.92041       0.5669       0.5166
   1428.90515       0.4904       0.6025    1428.90515       0.4903       0.6026
   1428.88989       0.4863       0.4995    1428.88989       0.4863       0.4996
   1428.87463       0.4966       0.5819    1428.87463       0.4965       0.5819
   1428.85938       0.4973       0.4310    1428.85938       0.4972       0.4310
   1428.84412       0.5170       0.4449    1428.84412       0.5169       0.4450
   1428.82886       0.5639       0.5065    1428.82886       0.5638       0.5065
   1428.81360       0.5365       0.5040    1428.81360       0.5364       0.5040
   1428.79834       0.4949       0.4444    1428.79834       0.4949       0.4444
   1428.78308       0.5255       0.5716    1428.78308       0.5254       0.5716
   1428.76782       0.5445       0.4239    1428.76782       0.5444       0.4239
   1428.75256       0.5002       0.4866    1428.75256       0.5001       0.4866
   1428.73730       0.5649       0.4594    1428.73730       0.5649       0.4595
   1428.72205       0.5034       0.3953    1428.72205       0.5034       0.3953
   1428.70679       0.4207       0.4713    1428.70679       0.4206       0.4713
   1428.69153       0.4370       0.5076    1428.69153       0.4369       0.5077
   1428.67627       0.4852       0.4276    1428.67627       0.4852       0.4277
   1428.66101       0.5246       0.4028    1428.66101       0.5246       0.4028
   1428.64575       0.4578       0.4873    1428.64575       0.4578       0.4873
   1428.63049       0.5535       0.4494    1428.63049       0.5535       0.4494
   1428.61523       0.4976       0.4217    1428.61523       0.4976       0.4218
   1428.59998       0.5902       0.4505    1428.59998       0.5901       0.4505
   1428.58472       0.5400       0.5138    1428.58472       0.5400       0.5138
   1428.56946       0.4642       0.4085    1428.56946       0.4641       0.4085
   1428.55420       0.4794       0.5095    1428.55420       0.4793       0.5095
   1428.53894       0.6328       0.5376    1428.53894       0.6327       0.5377
   1428.52368       0.6290       0.5263    1428.52368       0.6290       0.5264
   1428.50842       0.6136       0.4633    1428.50842       0.6135       0.4633
   1428.49316       0.5156       0.3989    1428.49316       0.5156       0.3990
   1428.47791       0.5307       0.4598    1428.47791       0.5307       0.4598
   1428.46265       0.5064       0.5244    1428.46265       0.5064       0.5245
   1428.44739       0.4550       0.4433    1428.44739       0.4550       0.4434
   1428.43213       0.4496       0.4502    1428.43213       0.4496       0.4502
   1428.41687       0.5018       0.4165    1428.41687       0.5018       0.4166
   1428.40161       0.5468       0.5071    1428.40161       0.5468       0.5071
   1428.38635       0.5917       0.4954    1428.38635       0.5916       0.4954
   1428.37109       0.5660       0.4287    1428.37109       0.5660       0.4287
   1428.35583       0.5641       0.3417    1428.35583       0.5641       0.3418
   1428.34058       0.5427       0.5055    1428.34058       0.5427       0.5055
   1428.32532       0.5471       0.4243    1428.32532       0.5470       0.4244
   1428.31006       0.5546       0.3560    1428.31006       0.5545       0.3560
   1428.29480       0.6126       0.3584    1428.29480       0.6125       0.3584
   1428.27954       0.4126       0.4533    1428.27954       0.4126       0.4534
   1428.26428       0.4808       0.3741    1428.26428       0.4807       0.3741
   1428.24902       0.5525       0.4317    1428.24902       0.5524       0.4318
   1428.23376       0.6207       0.4216    1428.23376       0.6206       0.4217
   1428.21851       0.6478       0.3711    1428.21851       0.6477       0.3711
   1428.20325       0.5835       0.4993    1428.20325       0.5834       0.4994
   1428.18799       0.4225       0.4576    1428.18799       0.4224       0.4576
   1428.17273       0.5631       0.4509    1428.17273       0.5630       0.4510
   1428.15747       0.5096       0.4141    1428.15747       0.5095       0.4141
   1428.14221       0.5458       0.3748    1428.14221       0.5457       0.3748
   1428.12695       0.5452       0.3825    1428.12695       0.5451       0.3825
   1428.11169       0.5389       0.4574    1428.11169       0.5389       0.4575
   1428.09644       0.5304       0.5121    1428.09644       0.5303       0.5121
   1428.08118       0.5747       0.4215    1428.08118       0.5747       0.4215
   1428.06592       0.5182       0.4139    1428.06592       0.5181       0.4139
   1428.05066       0.5494       0.4217    1428.05066       0.5493       0.4217
   1428.03540       0.4848       0.4235    1428.03540       0.4847       0.4235
   1428.02014       0.5362       0.4313    1428.02014       0.5361       0.4314
   1428.00488       0.4938       0.3952    1428.00488       0.4937       0.3953
   1427.98962       0.6224       0.4587    1427.98962       0.6224       0.4587
   1427.97437       0.4934       0.3917    1427.97437       0.4933       0.3917
   1427.95911       0.4875       0.3677    1427.95911       0.4874       0.3677
   1427.94385       0.5332       0.4275    1427.94385       0.5332       0.4276
   1427.92859       0.5831       0.3756    1427.92859       0.5830       0.3756
   1427.91333       0.5350       0.3377    1427.91333       0.5350       0.3377
   1427.89807       0.5447       0.3422    1427.89807       0.5446       0.3422
   1427.88281       0.4986       0.4628    1427.88281       0.4986       0.4628
   1427.86755       0.5002       0.4229    1427.86755       0.5001       0.4229
   1427.85229       0.4777       0.4099    1427.85229       0.4776       0.4099
   1427.83704       0.4318       0.5091    1427.83704       0.4318       0.5091
   1427.82178       0.6189       0.5157    1427.82178       0.6188       0.5157
   1427.80652       0.5572       0.5041    1427.80652       0.5571       0.5042
   1427.79126       0.5332       0.4707    1427.79126       0.5331       0.4708
   1427.77600       0.5749       0.3790    1427.77600       0.5748       0.3791
   1427.76074       0.5692       0.4121    1427.76074       0.5691       0.4121
   1427.74548       0.5150       0.4062    1427.74548       0.5149       0.4063
   1427.73022       0.4849       0.4060    1427.73022       0.4849       0.4060
   1427.71497       0.5940       0.4555    1427.71497       0.5939       0.4556
   1427.69971       0.5148       0.4362    1427.69971       0.5148       0.4362
   1427.68445       0.4884       0.4495    1427.68445       0.4884       0.4496
   1427.66919       0.4957       0.4181    1427.66919       0.4956       0.4181
   1427.65393       0.5187       0.4145    1427.65393       0.5186       0.4145
   1427.63867       0.5016       0.3734    1427.63867       0.5016       0.3734
   1427.62341       0.5585       0.4526    1427.62341       0.5584       0.4526
   1427.60815       0.5358       0.4248    1427.60815       0.5358       0.4248
   1427.59290       0.5639       0.4342    1427.59290       0.5638       0.4342
   1427.57764       0.6025       0.3944    1427.57764       0.6024       0.3944
   1427.56238       0.5593       0.3370    1427.56238       0.5592       0.3371
   1427.54712       0.5317       0.4033    1427.54712       0.5316       0.4033
   1427.53186       0.4564       0.4540    1427.53186       0.4563       0.4540
   1427.51660       0.5951       0.3602    1427.51660       0.5950       0.3603
   1427.50134       0.4858       0.4943    1427.50134       0.4858       0.4943
   1427.48608       0.5755       0.4349    1427.48608       0.5754       0.4349
   1427.47083       0.6055       0.5171    1427.47083       0.6055       0.5171
   1427.45557       0.4977       0.4339    1427.45557       0.4977       0.4339
   1427.44031       0.4824       0.4660    1427.44031       0.4823       0.4661
   1427.42505       0.5079       0.4519    1427.42505       0.5078       0.4519
   1427.40979       0.5394       0.4532    1427.40979       0.5393       0.4532
   1427.39453       0.5875       0.4352    1427.39453       0.5874       0.4352
   1427.37927       0.4374       0.3688    1427.37927       0.4374       0.3688
   1427.36401       0.5303       0.4146    1427.36401       0.5302       0.4146
   1427.34875       0.5293       0.3134    1427.34875       0.5292       0.3134
   1427.33350       0.4365       0.4104    1427.33350       0.4364       0.4104
   1427.31824       0.4793       0.4616    1427.31824       0.4793       0.4617
   1427.30298       0.5277       0.4469    1427.30298       0.5277       0.4470
   1427.28772       0.5660       0.4014    1427.28772       0.5659       0.4014
   1427.27246       0.5186       0.4265    1427.27246       0.5185       0.4266
   1427.25720       0.5136       0.3538    1427.25720       0.5136       0.3538
   1427.24194       0.4643       0.4310    1427.24194       0.4643       0.4311
   1427.22668       0.5004       0.4658    1427.22668       0.5004       0.4658
   1427.21143       0.5855       0.4027    1427.21143       0.5855       0.4027
   1427.19617       0.5626       0.4727    1427.19617       0.5625       0.4727
   1427.18091       0.5288       0.4686    1427.18091       0.5288       0.4687
   1427.16565       0.5734       0.3932    1427.16565       0.5733       0.3932
   1427.15039       0.5154       0.5069    1427.15039       0.5154       0.5069
   1427.13513       0.4931       0.4531    1427.13513       0.4931       0.4532
   1427.11987       0.5425       0.4220    1427.11987       0.5425       0.4220
   1427.10461       0.4664       0.3582    1427.10461       0.4663       0.3582
   1427.08936       0.6106       0.4481    1427.08936       0.6105       0.4482
   1427.07410       0.4976       0.4440    1427.07410       0.4976       0.4441
   1427.05884       0.5407       0.4678    1427.05884       0.5407       0.4678
   1427.04358       0.4875       0.4939    1427.04358       0.4874       0.4940
   1427.02832       0.4983       0.4517    1427.02832       0.4983       0.4517
   1427.01306       0.5568       0.4472    1427.01306       0.5567       0.4472
   1426.99780       0.5116       0.3950    1426.99780       0.5115       0.3950
   1426.98254       0.5206       0.4534    1426.98254       0.5205       0.4534
   1426.96729       0.5565       0.3703    1426.96729       0.5564       0.3703
   1426.95203       0.5154       0.5029    1426.95203       0.5154       0.5030
   1426.93677       0.4996       0.4189    1426.93677       0.4996       0.4190
   1426.92151       0.5053       0.4724    1426.92151       0.5052       0.4724
   1426.90625       0.5266       0.3888    1426.90625       0.5266       0.3889
   1426.89099       0.4603       0.4942    1426.89099       0.4603       0.4943
   1426.87573       0.5666       0.4683    1426.87573       0.5665       0.4683
   1426.86047       0.5504       0.4297    1426.86047       0.5504       0.4298
   1426.84521       0.4939       0.4406    1426.84521       0.4939       0.4407
   1426.82996       0.5908       0.4739    1426.82996       0.5908       0.4739
   1426.81470       0.5354       0.4616    1426.81470       0.5353       0.4616
   1426.79944       0.5723       0.4927    1426.79944       0.5723       0.4927
   1426.78418       0.5710       0.4876    1426.78418       0.5709       0.4876
   1426.76892       0.5413       0.3657    1426.76892       0.5412       0.3657
   1426.75366       0.5975       0.4592    1426.75366       0.5974       0.4593
   1426.73840       0.5148       0.4898    1426.73840       0.5147       0.4898
   1426.72314       0.5504       0.4401    1426.72314       0.5503       0.4402
   1426.70789       0.5198       0.5295    1426.70789       0.5198       0.5295
   1426.69263       0.5368       0.4019    1426.69263       0.5367       0.4020
   1426.67737       0.5348       0.4104    1426.67737       0.5348       0.4104
   1426.66211       0.5392       0.4398    1426.66211       0.5391       0.4398
   1426.64685       0.4709       0.4198    1426.64685       0.4708       0.4198
   1426.63159       0.5196       0.5811    1426.63159       0.5195       0.5812
   1426.61633       0.5749       0.4790    1426.61633       0.5748       0.4790
   1426.60107       0.4818       0.4658    1426.60107       0.4817       0.4658
