#     FILENAME=Skynet_58945_M31_center_44909_54513.A.onoff.cal.txt
#     BASENAME=Skynet_58945_M31_center_44909_54513
#      CONTROL=SKYNET
#     PROJCODE=Skynet_58945_M31_center_44909
#     DATAROOT=/raid/scratch/cyborg/SkynetData
#      DATADIR=/raid/scratch/cyborg
#     DATADIR2=/raid/scratch/cyborg/SkynetData/Skynet_58945_M31_center_44909/C
#     SCANNAME=2020_03_09_19
#     SRC_NAME=M31_center
#     OBSERVER=unioncollege_21317
#     DATE_OBS=2020-04-06T10:37:35.410
#        OBSID=44909
#      SCANNUM=54513
#          MJD=58945.4427709
#          UTC=38255
#     SCANTYPE=onoff
#     DATAMODE=HIRES
#     RECEIVER=Rx1_2
#      OBSFREQ=1395.0000
# Actual_FREQ1=1423.0000,
# Actual_FREQ2=1423.0000
#    LO1Tuning=6873.0000
#     RFFILTER=1355_1435
#        OBSBW=-15.6250
#     EFFBANDW=15.6250
#        NCHAN=1024
#    STARTCHAN=51
#     STOPCHAN=972
#         TINT=0.3000
#         TBIN=0.00013107
#       ACCLEN=2048 
#     DURATION=170.70
#     EXPOSURE=125.68
#        FOCUS=36.895
#       RA,DEC=00:42:49.47, 41:16:05.68
#      RA(deg)=9.35542
#     DEC(deg)=41.26853
#   WIDTH(deg)=2.0556x0.0307
#    AZIM(deg)=52.9391
#    ELEV(deg)=21.2669
#     COORDREF=RA_DEC_
#         HREF=10.6846
#         VREF=41.2687
#      RADESYS=FK5
#       OFFSYS=RADEC
#      EQUINOX=2000.00
#     IFATTENS=21.00, 5.00
#   BALANCELEV=1.200 
#   POWER_XLYR=[0.23, 0.2] 
#       VELDEF=RADI-OBS 
#     VELOCITY=0.000 
#         NPOL=2 
#      POLMODE=Linear 
#      POLTYPE=XXYY 
#      WARNING=None 
#     NOISECAL=HI 
#       PRECAL=2 
#      POSTCAL=2 
#     CRYOTEMP=15 
#      BOXTEMP=23 
#         TSYS=XX1:39.30, YY1:39.85
#         TSYS=XX2:39.30, YY2:39.85
#         TCAL=XX1:9.18, YY1:10.14
#         TCAL=XX2:9.18, YY2:10.14
# Calibrated spectra: Tsys*(ON-OFF)/OFF 
#                
#                
#Freq1(MHz)         XX1          YY1   Freq2(MHz)       XX2         YY2 
   1430.03430       1.1225       1.3334    1430.03430       1.1225       1.3334
   1430.01904       1.1330       1.2140    1430.01904       1.1330       1.2140
   1430.00378       1.2647       1.2500    1430.00378       1.2647       1.2500
   1429.98853       1.0694       1.2495    1429.98853       1.0694       1.2495
   1429.97327       1.2470       1.2886    1429.97327       1.2469       1.2885
   1429.95801       1.1890       1.2668    1429.95801       1.1890       1.2667
   1429.94275       1.1043       1.2688    1429.94275       1.1043       1.2687
   1429.92749       1.2823       1.2182    1429.92749       1.2822       1.2181
   1429.91223       1.2213       1.2333    1429.91223       1.2212       1.2332
   1429.89697       1.1900       1.2251    1429.89697       1.1899       1.2251
   1429.88171       1.1588       1.1748    1429.88171       1.1588       1.1748
   1429.86646       1.1302       1.3092    1429.86646       1.1302       1.3091
   1429.85120       1.2094       1.2594    1429.85120       1.2094       1.2594
   1429.83594       1.1417       1.2628    1429.83594       1.1417       1.2627
   1429.82068       1.2701       1.3342    1429.82068       1.2700       1.3342
   1429.80542       1.1908       1.2485    1429.80542       1.1907       1.2485
   1429.79016       1.2233       1.2491    1429.79016       1.2233       1.2491
   1429.77490       1.0945       1.3226    1429.77490       1.0945       1.3225
   1429.75964       1.1472       1.1982    1429.75964       1.1472       1.1982
   1429.74438       1.1649       1.2728    1429.74438       1.1649       1.2728
   1429.72913       1.1961       1.2936    1429.72913       1.1961       1.2935
   1429.71387       1.1821       1.2488    1429.71387       1.1821       1.2488
   1429.69861       1.1562       1.1811    1429.69861       1.1561       1.1810
   1429.68335       1.2486       1.2578    1429.68335       1.2485       1.2578
   1429.66809       1.2563       1.1920    1429.66809       1.2563       1.1920
   1429.65283       1.1432       1.2045    1429.65283       1.1432       1.2044
   1429.63757       1.1742       1.3569    1429.63757       1.1742       1.3569
   1429.62231       1.2384       1.2239    1429.62231       1.2384       1.2238
   1429.60706       1.2495       1.2279    1429.60706       1.2495       1.2278
   1429.59180       1.2220       1.2200    1429.59180       1.2220       1.2200
   1429.57654       1.1351       1.2799    1429.57654       1.1351       1.2798
   1429.56128       1.0658       1.3701    1429.56128       1.0658       1.3700
   1429.54602       1.1145       1.2638    1429.54602       1.1144       1.2638
   1429.53076       1.1444       1.1716    1429.53076       1.1443       1.1715
   1429.51550       1.2267       1.3452    1429.51550       1.2267       1.3451
   1429.50024       1.1667       1.1577    1429.50024       1.1667       1.1576
   1429.48499       1.0792       1.3329    1429.48499       1.0791       1.3329
   1429.46973       1.0603       1.2731    1429.46973       1.0603       1.2731
   1429.45447       1.1233       1.3412    1429.45447       1.1233       1.3412
   1429.43921       1.2157       1.2488    1429.43921       1.2157       1.2488
   1429.42395       1.1485       1.2331    1429.42395       1.1485       1.2331
   1429.40869       1.1299       1.2248    1429.40869       1.1299       1.2248
   1429.39343       1.1866       1.1782    1429.39343       1.1866       1.1782
   1429.37817       1.1112       1.1921    1429.37817       1.1112       1.1920
   1429.36292       1.2661       1.1233    1429.36292       1.2660       1.1232
   1429.34766       1.2819       1.2293    1429.34766       1.2819       1.2293
   1429.33240       1.2872       1.2999    1429.33240       1.2872       1.2999
   1429.31714       1.1566       1.2008    1429.31714       1.1566       1.2007
   1429.30188       1.1684       1.2008    1429.30188       1.1683       1.2008
   1429.28662       1.1728       1.1911    1429.28662       1.1728       1.1911
   1429.27136       1.2064       1.2961    1429.27136       1.2063       1.2961
   1429.25610       1.1454       1.2173    1429.25610       1.1454       1.2172
   1429.24084       1.2847       1.3446    1429.24084       1.2847       1.3445
   1429.22559       1.1357       1.2678    1429.22559       1.1357       1.2678
   1429.21033       1.0122       1.2571    1429.21033       1.0122       1.2570
   1429.19507       1.1558       1.3171    1429.19507       1.1558       1.3170
   1429.17981       1.1332       1.2727    1429.17981       1.1332       1.2726
   1429.16455       1.0820       1.1738    1429.16455       1.0820       1.1737
   1429.14929       1.1354       1.3805    1429.14929       1.1354       1.3804
   1429.13403       1.1423       1.2369    1429.13403       1.1422       1.2368
   1429.11877       1.2549       1.3085    1429.11877       1.2549       1.3085
   1429.10352       1.1746       1.2470    1429.10352       1.1746       1.2470
   1429.08826       1.1381       1.2504    1429.08826       1.1381       1.2504
   1429.07300       1.2060       1.2779    1429.07300       1.2060       1.2779
   1429.05774       1.1683       1.3187    1429.05774       1.1683       1.3186
   1429.04248       1.1359       1.2924    1429.04248       1.1359       1.2924
   1429.02722       1.2463       1.2561    1429.02722       1.2463       1.2561
   1429.01196       1.2871       1.2634    1429.01196       1.2871       1.2634
   1428.99670       1.2307       1.1899    1428.99670       1.2307       1.1898
   1428.98145       1.2443       1.3021    1428.98145       1.2442       1.3021
   1428.96619       1.1109       1.2947    1428.96619       1.1109       1.2947
   1428.95093       1.1521       1.3163    1428.95093       1.1521       1.3163
   1428.93567       1.1202       1.1711    1428.93567       1.1201       1.1711
   1428.92041       1.1407       1.2501    1428.92041       1.1406       1.2500
   1428.90515       1.2812       1.2955    1428.90515       1.2812       1.2955
   1428.88989       1.1973       1.2581    1428.88989       1.1973       1.2580
   1428.87463       1.2431       1.3145    1428.87463       1.2431       1.3144
   1428.85938       1.0549       1.2668    1428.85938       1.0548       1.2667
   1428.84412       1.1449       1.3156    1428.84412       1.1448       1.3155
   1428.82886       1.1877       1.1525    1428.82886       1.1877       1.1525
   1428.81360       1.1182       1.2657    1428.81360       1.1182       1.2657
   1428.79834       1.1553       1.3585    1428.79834       1.1553       1.3584
   1428.78308       1.1252       1.2722    1428.78308       1.1252       1.2722
   1428.76782       1.2732       1.2716    1428.76782       1.2731       1.2715
   1428.75256       1.0945       1.2722    1428.75256       1.0945       1.2722
   1428.73730       1.2028       1.3093    1428.73730       1.2027       1.3093
   1428.72205       1.1915       1.3302    1428.72205       1.1914       1.3301
   1428.70679       1.2094       1.1775    1428.70679       1.2093       1.1775
   1428.69153       1.0304       1.2293    1428.69153       1.0304       1.2293
   1428.67627       1.2623       1.3492    1428.67627       1.2623       1.3491
   1428.66101       1.1931       1.3524    1428.66101       1.1931       1.3524
   1428.64575       1.1142       1.3342    1428.64575       1.1141       1.3342
   1428.63049       1.1527       1.2352    1428.63049       1.1527       1.2352
   1428.61523       1.1834       1.3095    1428.61523       1.1833       1.3094
   1428.59998       1.1128       1.2228    1428.59998       1.1128       1.2227
   1428.58472       1.2632       1.3415    1428.58472       1.2632       1.3415
   1428.56946       1.1585       1.3106    1428.56946       1.1584       1.3106
   1428.55420       1.1226       1.3301    1428.55420       1.1226       1.3300
   1428.53894       1.1588       1.2298    1428.53894       1.1588       1.2297
   1428.52368       1.2018       1.3014    1428.52368       1.2018       1.3013
   1428.50842       1.1733       1.2742    1428.50842       1.1732       1.2741
   1428.49316       1.0789       1.2623    1428.49316       1.0789       1.2623
   1428.47791       1.1174       1.2767    1428.47791       1.1173       1.2766
   1428.46265       1.1275       1.3018    1428.46265       1.1275       1.3017
   1428.44739       1.1809       1.3323    1428.44739       1.1808       1.3322
   1428.43213       1.1575       1.3675    1428.43213       1.1575       1.3675
   1428.41687       1.1410       1.3485    1428.41687       1.1410       1.3485
   1428.40161       1.1554       1.2868    1428.40161       1.1553       1.2868
   1428.38635       1.1805       1.3542    1428.38635       1.1804       1.3542
   1428.37109       1.1426       1.2556    1428.37109       1.1426       1.2556
   1428.35583       1.2093       1.3259    1428.35583       1.2093       1.3259
   1428.34058       1.1432       1.3226    1428.34058       1.1432       1.3226
   1428.32532       1.1719       1.3895    1428.32532       1.1719       1.3894
   1428.31006       1.2171       1.3301    1428.31006       1.2171       1.3300
   1428.29480       1.1054       1.3274    1428.29480       1.1054       1.3273
   1428.27954       1.2289       1.3531    1428.27954       1.2289       1.3531
   1428.26428       1.1599       1.4174    1428.26428       1.1598       1.4173
   1428.24902       1.1260       1.3985    1428.24902       1.1259       1.3984
   1428.23376       1.2961       1.3907    1428.23376       1.2961       1.3907
   1428.21851       1.1740       1.2670    1428.21851       1.1740       1.2669
   1428.20325       1.0429       1.3145    1428.20325       1.0428       1.3144
   1428.18799       1.2062       1.3809    1428.18799       1.2061       1.3808
   1428.17273       1.1476       1.3289    1428.17273       1.1475       1.3289
   1428.15747       1.1778       1.2747    1428.15747       1.1777       1.2747
   1428.14221       1.2577       1.3772    1428.14221       1.2577       1.3771
   1428.12695       1.1798       1.3730    1428.12695       1.1797       1.3729
   1428.11169       1.1926       1.2675    1428.11169       1.1926       1.2675
   1428.09644       1.1764       1.3130    1428.09644       1.1764       1.3130
   1428.08118       1.0791       1.4039    1428.08118       1.0790       1.4038
   1428.06592       1.1353       1.3725    1428.06592       1.1353       1.3725
   1428.05066       1.1513       1.3917    1428.05066       1.1512       1.3917
   1428.03540       1.2094       1.3795    1428.03540       1.2093       1.3794
   1428.02014       1.0683       1.3443    1428.02014       1.0683       1.3442
   1428.00488       1.0684       1.3498    1428.00488       1.0684       1.3497
   1427.98962       1.1347       1.3555    1427.98962       1.1346       1.3554
   1427.97437       1.1963       1.3767    1427.97437       1.1963       1.3767
   1427.95911       1.1561       1.3087    1427.95911       1.1561       1.3087
   1427.94385       1.1747       1.3143    1427.94385       1.1747       1.3142
   1427.92859       1.1800       1.3322    1427.92859       1.1800       1.3322
   1427.91333       1.2286       1.2993    1427.91333       1.2286       1.2992
   1427.89807       1.1047       1.3451    1427.89807       1.1046       1.3450
   1427.88281       1.2710       1.4025    1427.88281       1.2710       1.4025
   1427.86755       1.1449       1.3506    1427.86755       1.1449       1.3506
   1427.85229       1.2216       1.3694    1427.85229       1.2216       1.3693
   1427.83704       1.1560       1.3558    1427.83704       1.1560       1.3557
   1427.82178       1.1005       1.4277    1427.82178       1.1005       1.4277
   1427.80652       1.0798       1.3836    1427.80652       1.0798       1.3835
   1427.79126       1.1526       1.3413    1427.79126       1.1526       1.3413
   1427.77600       1.0575       1.4241    1427.77600       1.0574       1.4241
   1427.76074       1.1511       1.3625    1427.76074       1.1511       1.3624
   1427.74548       1.1782       1.2929    1427.74548       1.1782       1.2928
   1427.73022       1.0433       1.3465    1427.73022       1.0433       1.3464
   1427.71497       1.1850       1.3338    1427.71497       1.1850       1.3338
   1427.69971       1.0948       1.3658    1427.69971       1.0948       1.3657
   1427.68445       1.0823       1.3851    1427.68445       1.0822       1.3851
   1427.66919       1.1737       1.3167    1427.66919       1.1736       1.3167
   1427.65393       1.0756       1.3054    1427.65393       1.0756       1.3053
   1427.63867       1.1192       1.3692    1427.63867       1.1191       1.3692
   1427.62341       1.1890       1.3988    1427.62341       1.1890       1.3987
   1427.60815       1.0612       1.2904    1427.60815       1.0612       1.2903
   1427.59290       1.0344       1.3685    1427.59290       1.0344       1.3684
   1427.57764       1.0260       1.3337    1427.57764       1.0260       1.3337
   1427.56238       1.1055       1.4099    1427.56238       1.1055       1.4098
   1427.54712       0.9983       1.4053    1427.54712       0.9983       1.4053
   1427.53186       1.1490       1.3899    1427.53186       1.1490       1.3898
   1427.51660       1.1400       1.3881    1427.51660       1.1400       1.3880
   1427.50134       1.1903       1.3378    1427.50134       1.1903       1.3378
   1427.48608       1.0598       1.3728    1427.48608       1.0597       1.3727
   1427.47083       1.0576       1.4079    1427.47083       1.0576       1.4078
   1427.45557       1.1098       1.3959    1427.45557       1.1098       1.3958
   1427.44031       1.0356       1.3806    1427.44031       1.0356       1.3805
   1427.42505       1.0675       1.4191    1427.42505       1.0675       1.4191
   1427.40979       1.0744       1.4521    1427.40979       1.0744       1.4520
   1427.39453       1.0488       1.3581    1427.39453       1.0488       1.3580
   1427.37927       1.0844       1.3800    1427.37927       1.0844       1.3800
   1427.36401       1.1648       1.3476    1427.36401       1.1647       1.3475
   1427.34875       1.1118       1.2791    1427.34875       1.1118       1.2790
   1427.33350       1.1391       1.4070    1427.33350       1.1391       1.4069
   1427.31824       1.0626       1.3877    1427.31824       1.0626       1.3877
   1427.30298       1.0892       1.4266    1427.30298       1.0892       1.4266
   1427.28772       1.0821       1.4709    1427.28772       1.0821       1.4708
   1427.27246       1.1234       1.3349    1427.27246       1.1233       1.3349
   1427.25720       1.1428       1.4681    1427.25720       1.1428       1.4680
   1427.24194       1.0638       1.4344    1427.24194       1.0637       1.4343
   1427.22668       1.1090       1.4600    1427.22668       1.1090       1.4599
   1427.21143       1.0171       1.4761    1427.21143       1.0171       1.4761
   1427.19617       1.0410       1.3418    1427.19617       1.0409       1.3417
   1427.18091       1.0641       1.3962    1427.18091       1.0641       1.3962
   1427.16565       0.9621       1.3994    1427.16565       0.9621       1.3993
   1427.15039       1.1375       1.4290    1427.15039       1.1375       1.4289
   1427.13513       1.1000       1.3415    1427.13513       1.1000       1.3414
   1427.11987       1.1535       1.4912    1427.11987       1.1535       1.4911
   1427.10461       1.0686       1.3692    1427.10461       1.0686       1.3692
   1427.08936       1.0307       1.3873    1427.08936       1.0307       1.3872
   1427.07410       1.1146       1.5180    1427.07410       1.1146       1.5179
   1427.05884       1.0442       1.4079    1427.05884       1.0442       1.4078
   1427.04358       1.0744       1.4268    1427.04358       1.0744       1.4268
   1427.02832       1.0520       1.4120    1427.02832       1.0520       1.4120
   1427.01306       1.0922       1.4551    1427.01306       1.0921       1.4551
   1426.99780       1.0332       1.4585    1426.99780       1.0331       1.4584
   1426.98254       1.0181       1.3696    1426.98254       1.0180       1.3695
   1426.96729       1.0038       1.4029    1426.96729       1.0038       1.4028
   1426.95203       1.0270       1.5111    1426.95203       1.0270       1.5110
   1426.93677       1.0033       1.4164    1426.93677       1.0033       1.4164
   1426.92151       1.1541       1.3556    1426.92151       1.1541       1.3555
   1426.90625       1.0664       1.4479    1426.90625       1.0663       1.4478
   1426.89099       1.0723       1.3965    1426.89099       1.0723       1.3964
   1426.87573       1.0861       1.3924    1426.87573       1.0861       1.3923
   1426.86047       1.1125       1.4628    1426.86047       1.1125       1.4628
   1426.84521       0.9840       1.4912    1426.84521       0.9839       1.4911
   1426.82996       1.0766       1.4735    1426.82996       1.0765       1.4734
   1426.81470       0.9542       1.5124    1426.81470       0.9542       1.5123
   1426.79944       0.9836       1.4236    1426.79944       0.9835       1.4236
   1426.78418       1.0627       1.3977    1426.78418       1.0626       1.3976
   1426.76892       1.1179       1.5092    1426.76892       1.1178       1.5092
   1426.75366       1.1018       1.4992    1426.75366       1.1017       1.4991
   1426.73840       1.0622       1.4502    1426.73840       1.0622       1.4502
   1426.72314       1.0597       1.4518    1426.72314       1.0597       1.4518
   1426.70789       1.0453       1.4800    1426.70789       1.0452       1.4800
   1426.69263       1.1081       1.5215    1426.69263       1.1081       1.5215
   1426.67737       1.0489       1.4619    1426.67737       1.0489       1.4618
   1426.66211       1.4227       1.4073    1426.66211       1.4227       1.4073
   1426.64685       0.9625       1.4024    1426.64685       0.9624       1.4023
   1426.63159       1.0667       1.4618    1426.63159       1.0666       1.4618
   1426.61633       1.0332       1.3566    1426.61633       1.0331       1.3565
   1426.60107       0.9948       1.4935    1426.60107       0.9947       1.4934
