#     FILENAME=Skynet_59472_messier_31_62130_10961.A.onoff.cal.txt
#     BASENAME=Skynet_59472_messier_31_62130_10961
#      CONTROL=SKYNET
#     PROJCODE=Skynet_59472_messier_31_62130
#     DATAROOT=/raid/scratch/cyborg/SkynetData
#      DATADIR=/raid/scratch/cyborg
#     DATADIR2=/raid/scratch/cyborg/SkynetData/Skynet_59472_messier_31_62130/C
#     SCANNAME=2019_06_26_10
#     SRC_NAME=messier_31
#     OBSERVER=sdss2_39397
#     DATE_OBS=2021-09-16T00:11:22.120
#        OBSID=62130
#      SCANNUM=10961
#          MJD=59473.0078949
#          UTC=00682
#     SCANTYPE=onoff
#     DATAMODE=HIRES
#     RECEIVER=Rx1_2
#      OBSFREQ=1395.0000
# Actual_FREQ1=1424.4100,
# Actual_FREQ2=1424.4100
#    LO1Tuning=6874.4100
#     RFFILTER=1355_1435
#        OBSBW=-15.6250
#     EFFBANDW=15.6250
#        NCHAN=1024
#    STARTCHAN=51
#     STOPCHAN=972
#         TINT=0.3000
#         TBIN=0.00419430
#       ACCLEN=2048 
#     DURATION=118.50
#     EXPOSURE=99.29
#        FOCUS=37.071
#       RA,DEC=00:43:00.17, 41:16:06.13
#      RA(deg)=12.68220
#     DEC(deg)=41.26873
#   WIDTH(deg)=3.0210x0.0151
#    AZIM(deg)=52.9099
#    ELEV(deg)=21.2509
#     COORDREF=RA_DEC_
#         HREF=10.6846
#         VREF=41.2687
#      RADESYS=FK5
#       OFFSYS=RADEC
#      EQUINOX=2000.00
#     IFATTENS=23.00, 9.00
#   BALANCELEV=1.200 
#   POWER_XLYR=[0.8, 0.56] 
#       VELDEF=RADI-OBS 
#     VELOCITY=0.000 
#         NPOL=2 
#      POLMODE=Linear 
#      POLTYPE=XXYY 
#      WARNING=None 
#     NOISECAL=HI 
#       PRECAL=2 
#      POSTCAL=2 
#     CRYOTEMP=17 
#      BOXTEMP=24 
#         TSYS=XX1:287.94, YY1:319.71
#         TSYS=XX2:287.94, YY2:319.71
#         TCAL=XX1:9.18, YY1:10.14
#         TCAL=XX2:9.18, YY2:10.14
# Calibrated spectra: Tsys*(ON-OFF)/OFF 
#                
#                
#Freq1(MHz)         XX1          YY1   Freq2(MHz)       XX2         YY2 
   1431.44430      -6.8495      -7.6283    1431.44430      -6.8495      -7.6283
   1431.42904      -6.6297      -9.0392    1431.42904      -6.6297      -9.0392
   1431.41378      -6.6950      -8.6880    1431.41378      -6.6950      -8.6880
   1431.39853      -6.3654      -8.5223    1431.39853      -6.3654      -8.5223
   1431.38327      -6.6795      -8.6453    1431.38327      -6.6795      -8.6453
   1431.36801      -7.1053      -7.4379    1431.36801      -7.1053      -7.4379
   1431.35275      -6.4500      -8.1666    1431.35275      -6.4500      -8.1666
   1431.33749      -7.0379      -8.3959    1431.33749      -7.0379      -8.3959
   1431.32223      -6.9980      -8.0269    1431.32223      -6.9980      -8.0269
   1431.30697      -6.5818      -8.0420    1431.30697      -6.5818      -8.0420
   1431.29171      -6.7430      -9.2813    1431.29171      -6.7430      -9.2813
   1431.27646      -7.0489      -7.7745    1431.27646      -7.0489      -7.7745
   1431.26120      -7.0931      -8.3207    1431.26120      -7.0931      -8.3207
   1431.24594      -6.5288      -8.4557    1431.24594      -6.5288      -8.4557
   1431.23068      -7.3589      -8.5040    1431.23068      -7.3589      -8.5040
   1431.21542      -6.7898      -8.1556    1431.21542      -6.7898      -8.1556
   1431.20016      -6.3216      -8.2004    1431.20016      -6.3216      -8.2004
   1431.18490      -6.6157      -8.4150    1431.18490      -6.6157      -8.4150
   1431.16964      -6.4286      -8.1941    1431.16964      -6.4286      -8.1941
   1431.15438      -6.2805      -7.6694    1431.15438      -6.2805      -7.6694
   1431.13913      -6.1536      -7.9958    1431.13913      -6.1536      -7.9958
   1431.12387      -7.0326      -8.7512    1431.12387      -7.0326      -8.7512
   1431.10861      -6.2647      -8.5277    1431.10861      -6.2647      -8.5277
   1431.09335      -7.1730      -8.7465    1431.09335      -7.1730      -8.7465
   1431.07809      -6.7185      -8.8228    1431.07809      -6.7185      -8.8228
   1431.06283      -6.3756      -8.5301    1431.06283      -6.3756      -8.5301
   1431.04757      -7.2552      -7.9090    1431.04757      -7.2552      -7.9090
   1431.03231      -7.4409      -7.9483    1431.03231      -7.4409      -7.9483
   1431.01706      -6.9062      -7.4663    1431.01706      -6.9062      -7.4663
   1431.00180      -6.8064      -9.5070    1431.00180      -6.8064      -9.5070
   1430.98654      -6.3796      -7.7028    1430.98654      -6.3796      -7.7028
   1430.97128      -6.7872      -7.9357    1430.97128      -6.7872      -7.9357
   1430.95602      -6.5957      -8.2147    1430.95602      -6.5957      -8.2147
   1430.94076      -6.6297      -9.2041    1430.94076      -6.6297      -9.2041
   1430.92550      -6.7067      -8.2537    1430.92550      -6.7067      -8.2537
   1430.91024      -6.6042      -8.5649    1430.91024      -6.6042      -8.5649
   1430.89499      -6.2165      -9.0619    1430.89499      -6.2165      -9.0619
   1430.87973      -7.2074      -8.8303    1430.87973      -7.2074      -8.8303
   1430.86447      -6.8434      -8.7558    1430.86447      -6.8434      -8.7558
   1430.84921      -6.0542      -8.1289    1430.84921      -6.0542      -8.1289
   1430.83395      -6.5220      -8.4450    1430.83395      -6.5220      -8.4450
   1430.81869      -6.1849      -8.8259    1430.81869      -6.1849      -8.8259
   1430.80343      -6.8306      -9.6795    1430.80343      -6.8306      -9.6795
   1430.78817      -5.9915      -9.0172    1430.78817      -5.9915      -9.0172
   1430.77292      -5.7566      -8.1442    1430.77292      -5.7566      -8.1442
   1430.75766      -6.1888      -7.5446    1430.75766      -6.1888      -7.5446
   1430.74240      -5.8877      -8.3161    1430.74240      -5.8877      -8.3161
   1430.72714      -6.4411      -8.1154    1430.72714      -6.4411      -8.1154
   1430.71188      -6.6693      -7.9324    1430.71188      -6.6693      -7.9324
   1430.69662      -6.6432      -8.7921    1430.69662      -6.6432      -8.7921
   1430.68136      -6.3823      -8.3082    1430.68136      -6.3823      -8.3082
   1430.66610      -7.2639      -7.8532    1430.66610      -7.2639      -7.8532
   1430.65084      -6.5870      -8.5190    1430.65084      -6.5870      -8.5190
   1430.63559      -5.9108      -9.0178    1430.63559      -5.9108      -9.0178
   1430.62033      -6.4096      -8.3946    1430.62033      -6.4096      -8.3946
   1430.60507      -6.1141      -8.0387    1430.60507      -6.1141      -8.0387
   1430.58981      -6.8906      -9.3119    1430.58981      -6.8906      -9.3119
   1430.57455      -5.7135      -8.7595    1430.57455      -5.7135      -8.7595
   1430.55929      -6.8044      -8.8981    1430.55929      -6.8044      -8.8981
   1430.54403      -6.9158      -8.8998    1430.54403      -6.9158      -8.8998
   1430.52877      -5.9564      -9.5522    1430.52877      -5.9564      -9.5522
   1430.51352      -6.3978      -8.8436    1430.51352      -6.3978      -8.8436
   1430.49826      -5.8890      -8.9356    1430.49826      -5.8890      -8.9356
   1430.48300      -6.6060      -8.5462    1430.48300      -6.6060      -8.5462
   1430.46774      -6.9141      -8.5232    1430.46774      -6.9141      -8.5232
   1430.45248      -6.9937     -10.0960    1430.45248      -6.9937     -10.0960
   1430.43722      -6.2157      -8.6048    1430.43722      -6.2157      -8.6048
   1430.42196      -5.6532      -9.7886    1430.42196      -5.6532      -9.7886
   1430.40670      -6.7933      -9.4883    1430.40670      -6.7933      -9.4883
   1430.39145      -6.3530      -9.2840    1430.39145      -6.3530      -9.2840
   1430.37619      -6.4407      -8.5439    1430.37619      -6.4407      -8.5439
   1430.36093      -6.4216      -9.2200    1430.36093      -6.4216      -9.2200
   1430.34567      -6.4923      -9.0735    1430.34567      -6.4923      -9.0735
   1430.33041      -5.9094      -9.3358    1430.33041      -5.9094      -9.3358
   1430.31515      -6.1758      -8.8845    1430.31515      -6.1758      -8.8845
   1430.29989      -5.8443      -8.3969    1430.29989      -5.8443      -8.3969
   1430.28463      -6.4200      -9.1393    1430.28463      -6.4200      -9.1393
   1430.26937      -6.0090      -9.3238    1430.26937      -6.0090      -9.3238
   1430.25412      -6.5989      -8.8208    1430.25412      -6.5989      -8.8208
   1430.23886      -6.4674      -8.8318    1430.23886      -6.4674      -8.8318
   1430.22360      -6.4543      -7.6475    1430.22360      -6.4543      -7.6475
   1430.20834      -6.2685      -9.0302    1430.20834      -6.2685      -9.0302
   1430.19308      -6.4874      -9.2991    1430.19308      -6.4874      -9.2991
   1430.17782      -6.4503      -9.2487    1430.17782      -6.4503      -9.2487
   1430.16256      -5.6530      -8.3451    1430.16256      -5.6530      -8.3451
   1430.14730      -6.5123      -8.9777    1430.14730      -6.5123      -8.9777
   1430.13205      -7.0131      -8.2484    1430.13205      -7.0131      -8.2484
   1430.11679      -6.0386      -9.1538    1430.11679      -6.0386      -9.1538
   1430.10153      -6.0717      -8.3120    1430.10153      -6.0717      -8.3120
   1430.08627      -6.5185      -9.2142    1430.08627      -6.5185      -9.2142
   1430.07101      -6.3441      -9.1620    1430.07101      -6.3441      -9.1620
   1430.05575      -6.6555      -9.6746    1430.05575      -6.6555      -9.6746
   1430.04049      -6.4825      -9.2462    1430.04049      -6.4825      -9.2462
   1430.02523      -6.3941      -8.5231    1430.02523      -6.3941      -8.5231
   1430.00998      -6.0955      -8.6445    1430.00998      -6.0955      -8.6445
   1429.99472      -5.3281      -9.1353    1429.99472      -5.3281      -9.1353
   1429.97946      -6.1100      -9.1022    1429.97946      -6.1100      -9.1022
   1429.96420      -6.2818      -8.2271    1429.96420      -6.2818      -8.2271
   1429.94894      -6.3362      -9.3979    1429.94894      -6.3362      -9.3979
   1429.93368      -6.5036      -9.9466    1429.93368      -6.5036      -9.9466
   1429.91842      -6.3426      -8.4453    1429.91842      -6.3426      -8.4453
   1429.90316      -5.8026      -8.9072    1429.90316      -5.8026      -8.9072
   1429.88791      -6.4349      -8.9455    1429.88791      -6.4349      -8.9455
   1429.87265      -6.7209      -8.8038    1429.87265      -6.7209      -8.8038
   1429.85739      -6.4614      -8.5990    1429.85739      -6.4614      -8.5990
   1429.84213      -6.6411      -9.5137    1429.84213      -6.6411      -9.5137
   1429.82687      -6.0062      -8.6448    1429.82687      -6.0062      -8.6448
   1429.81161      -6.4639      -8.7013    1429.81161      -6.4639      -8.7013
   1429.79635      -6.2065      -8.6710    1429.79635      -6.2065      -8.6710
   1429.78109      -5.5647      -8.8481    1429.78109      -5.5647      -8.8481
   1429.76583      -6.9049      -9.3087    1429.76583      -6.9049      -9.3087
   1429.75058      -6.3138      -9.1683    1429.75058      -6.3138      -9.1683
   1429.73532      -6.6008      -9.0983    1429.73532      -6.6008      -9.0983
   1429.72006      -5.8032      -9.0422    1429.72006      -5.8032      -9.0422
   1429.70480      -6.1195      -9.0593    1429.70480      -6.1195      -9.0593
   1429.68954      -7.0463      -7.8669    1429.68954      -7.0463      -7.8669
   1429.67428      -5.2703      -9.9726    1429.67428      -5.2703      -9.9726
   1429.65902      -6.7259     -10.0742    1429.65902      -6.7259     -10.0742
   1429.64376      -6.2305      -9.7543    1429.64376      -6.2305      -9.7543
   1429.62851      -5.8993      -9.2948    1429.62851      -5.8993      -9.2948
   1429.61325      -5.7110      -9.5201    1429.61325      -5.7110      -9.5201
   1429.59799      -5.8267      -9.3439    1429.59799      -5.8267      -9.3439
   1429.58273      -6.1561      -9.0684    1429.58273      -6.1561      -9.0684
   1429.56747      -5.7553      -9.9140    1429.56747      -5.7553      -9.9140
   1429.55221      -6.4274      -9.2903    1429.55221      -6.4274      -9.2903
   1429.53695      -6.3458      -8.8652    1429.53695      -6.3458      -8.8652
   1429.52169      -6.3332      -9.3389    1429.52169      -6.3332      -9.3389
   1429.50644      -5.8590      -9.1091    1429.50644      -5.8590      -9.1091
   1429.49118      -5.8321      -9.3015    1429.49118      -5.8321      -9.3015
   1429.47592      -5.9127      -9.0882    1429.47592      -5.9127      -9.0882
   1429.46066      -6.0702      -9.4036    1429.46066      -6.0702      -9.4036
   1429.44540      -6.4914      -8.6775    1429.44540      -6.4914      -8.6775
   1429.43014      -6.2419      -9.5395    1429.43014      -6.2419      -9.5395
   1429.41488      -5.6477      -9.4672    1429.41488      -5.6477      -9.4672
   1429.39962      -5.9412      -9.0125    1429.39962      -5.9412      -9.0125
   1429.38437      -6.2157      -9.2995    1429.38437      -6.2157      -9.2995
   1429.36911      -5.9826      -9.0402    1429.36911      -5.9826      -9.0402
   1429.35385      -5.4233      -8.7968    1429.35385      -5.4233      -8.7968
   1429.33859      -6.1715      -9.4020    1429.33859      -6.1715      -9.4020
   1429.32333      -5.6033      -8.7040    1429.32333      -5.6033      -8.7040
   1429.30807      -5.9426      -9.2832    1429.30807      -5.9426      -9.2832
   1429.29281      -5.4303      -9.4418    1429.29281      -5.4303      -9.4418
   1429.27755      -6.4194      -8.6721    1429.27755      -6.4194      -8.6721
   1429.26229      -5.8363      -8.7250    1429.26229      -5.8363      -8.7250
   1429.24704      -6.2418      -8.6415    1429.24704      -6.2418      -8.6415
   1429.23178      -6.3616      -9.8303    1429.23178      -6.3616      -9.8303
   1429.21652      -5.9011      -8.9195    1429.21652      -5.9011      -8.9195
   1429.20126      -5.7387      -9.3127    1429.20126      -5.7387      -9.3127
   1429.18600      -6.2974      -8.1807    1429.18600      -6.2974      -8.1807
   1429.17074      -5.8042      -9.3463    1429.17074      -5.8042      -9.3463
   1429.15548      -6.0824      -8.0946    1429.15548      -6.0824      -8.0946
   1429.14022      -6.0640      -9.5687    1429.14022      -6.0640      -9.5687
   1429.12497      -5.5126      -9.2643    1429.12497      -5.5126      -9.2643
   1429.10971      -6.3923      -9.1635    1429.10971      -6.3923      -9.1635
   1429.09445      -5.7693      -9.2863    1429.09445      -5.7693      -9.2863
   1429.07919      -5.8709      -9.3151    1429.07919      -5.8709      -9.3151
   1429.06393      -5.8936      -9.4483    1429.06393      -5.8936      -9.4483
   1429.04867      -6.5802      -9.4366    1429.04867      -6.5802      -9.4366
   1429.03341      -5.6631      -9.5040    1429.03341      -5.6631      -9.5040
   1429.01815      -6.6393      -9.3750    1429.01815      -6.6393      -9.3750
   1429.00290      -6.9093      -9.7604    1429.00290      -6.9093      -9.7604
   1428.98764      -5.7006      -8.8543    1428.98764      -5.7006      -8.8543
   1428.97238      -6.3281      -9.1042    1428.97238      -6.3281      -9.1042
   1428.95712      -6.5975      -9.3022    1428.95712      -6.5975      -9.3022
   1428.94186      -6.8622      -8.4047    1428.94186      -6.8622      -8.4047
   1428.92660      -5.2567      -8.8525    1428.92660      -5.2567      -8.8525
   1428.91134      -5.5946      -8.8325    1428.91134      -5.5946      -8.8325
   1428.89608      -5.9918      -8.8978    1428.89608      -5.9918      -8.8978
   1428.88083      -5.9814      -8.5431    1428.88083      -5.9814      -8.5431
   1428.86557      -6.5887      -9.4398    1428.86557      -6.5887      -9.4398
   1428.85031      -6.6224     -10.1464    1428.85031      -6.6224     -10.1464
   1428.83505      -6.3878      -8.6332    1428.83505      -6.3878      -8.6332
   1428.81979      -5.1594      -9.5007    1428.81979      -5.1594      -9.5007
   1428.80453      -5.4495      -8.8549    1428.80453      -5.4495      -8.8549
   1428.78927      -5.8149      -8.5071    1428.78927      -5.8149      -8.5071
   1428.77401      -5.5132      -8.6747    1428.77401      -5.5132      -8.6747
   1428.75875      -6.3801      -9.2385    1428.75875      -6.3801      -9.2385
   1428.74350      -5.8774      -8.7151    1428.74350      -5.8774      -8.7151
   1428.72824      -6.0289      -9.4785    1428.72824      -6.0289      -9.4785
   1428.71298      -5.7230      -9.9233    1428.71298      -5.7230      -9.9233
   1428.69772      -6.6155      -9.3135    1428.69772      -6.6155      -9.3135
   1428.68246      -5.8883      -8.6806    1428.68246      -5.8883      -8.6806
   1428.66720      -6.3384      -9.5314    1428.66720      -6.3384      -9.5314
   1428.65194      -6.1229      -9.8674    1428.65194      -6.1229      -9.8674
   1428.63668      -5.2659      -8.7814    1428.63668      -5.2659      -8.7814
   1428.62143      -5.5929      -9.1122    1428.62143      -5.5929      -9.1122
   1428.60617      -5.8987      -8.6059    1428.60617      -5.8987      -8.6059
   1428.59091      -5.8534      -8.9854    1428.59091      -5.8534      -8.9854
   1428.57565      -6.3953      -8.8333    1428.57565      -6.3953      -8.8333
   1428.56039      -5.7736      -8.6998    1428.56039      -5.7736      -8.6998
   1428.54513      -6.3429      -8.3753    1428.54513      -6.3429      -8.3753
   1428.52987      -6.4899      -8.6615    1428.52987      -6.4899      -8.6615
   1428.51461      -6.7503      -9.5291    1428.51461      -6.7503      -9.5291
   1428.49936      -5.9526      -8.9363    1428.49936      -5.9526      -8.9363
   1428.48410      -5.9371      -8.8646    1428.48410      -5.9371      -8.8646
   1428.46884      -6.5151      -8.7883    1428.46884      -6.5151      -8.7883
   1428.45358      -6.3532      -8.8036    1428.45358      -6.3532      -8.8036
   1428.43832      -5.6918      -8.4649    1428.43832      -5.6918      -8.4649
   1428.42306      -6.2336      -8.6842    1428.42306      -6.2336      -8.6842
   1428.40780      -5.9906      -8.9328    1428.40780      -5.9906      -8.9328
   1428.39254      -5.4423      -8.7072    1428.39254      -5.4423      -8.7072
   1428.37729      -6.1365      -9.3920    1428.37729      -6.1365      -9.3920
   1428.36203      -5.9112      -8.7896    1428.36203      -5.9112      -8.7896
   1428.34677      -5.5521      -9.8872    1428.34677      -5.5521      -9.8872
   1428.33151      -5.8898      -8.9307    1428.33151      -5.8898      -8.9307
   1428.31625      -6.0492      -8.9832    1428.31625      -6.0492      -8.9832
   1428.30099      -6.4055      -9.3748    1428.30099      -6.4055      -9.3748
   1428.28573      -6.2133      -9.1579    1428.28573      -6.2133      -9.1579
   1428.27047      -5.9886      -9.0837    1428.27047      -5.9886      -9.0837
   1428.25521      -6.1522      -9.3147    1428.25521      -6.1522      -9.3147
   1428.23996      -5.5894      -9.6396    1428.23996      -5.5894      -9.6396
   1428.22470      -6.9882      -9.5546    1428.22470      -6.9882      -9.5546
   1428.20944      -6.7716      -9.1490    1428.20944      -6.7716      -9.1490
   1428.19418      -6.5716      -8.7383    1428.19418      -6.5716      -8.7383
   1428.17892      -6.6032      -9.5105    1428.17892      -6.6032      -9.5105
   1428.16366      -6.5448      -8.8807    1428.16366      -6.5448      -8.8807
   1428.14840      -6.2769      -9.1757    1428.14840      -6.2769      -9.1757
   1428.13314      -6.7659      -8.8658    1428.13314      -6.7659      -8.8658
   1428.11789      -6.4484      -8.9373    1428.11789      -6.4484      -8.9373
   1428.10263      -5.8005      -8.5626    1428.10263      -5.8005      -8.5626
   1428.08737      -6.4666      -9.0572    1428.08737      -6.4666      -9.0572
   1428.07211      -3.1955      -4.9593    1428.07211      -3.1955      -4.9593
   1428.05685      -6.3615      -9.2068    1428.05685      -6.3615      -9.2068
   1428.04159      -5.9394      -9.3388    1428.04159      -5.9394      -9.3388
   1428.02633      -6.3026      -9.1714    1428.02633      -6.3026      -9.1714
   1428.01107      -6.2514      -8.8544    1428.01107      -6.2514      -8.8544
