#     FILENAME=Skynet_59472_ngc3976_group2_62119_10949.A.onoff.cal.txt
#     BASENAME=Skynet_59472_ngc3976_group2_62119_10949
#      CONTROL=SKYNET
#     PROJCODE=Skynet_59472_ngc3976_group2_62119
#     DATAROOT=/raid/scratch/cyborg/SkynetData
#      DATADIR=/raid/scratch/cyborg
#     DATADIR2=/raid/scratch/cyborg/SkynetData/Skynet_59472_ngc3976_group2_621
#     SCANNAME=2019_06_26_10
#     SRC_NAME=ngc3976_group2
#     OBSERVER=sdss2_39397
#     DATE_OBS=2021-09-15T20:02:59.190
#        OBSID=62119
#      SCANNUM=10949
#          MJD=59472.8354073
#          UTC=72179
#     SCANTYPE=onoff
#     DATAMODE=HIRES
#     RECEIVER=Rx1_2
#      OBSFREQ=1409.7000
# Actual_FREQ1=1653.7000,
# Actual_FREQ2=1403.7000
#    LO1Tuning=6978.7000
#     RFFILTER=1300_1800
#        OBSBW=-15.6250
#     EFFBANDW=15.6250
#        NCHAN=1024
#    STARTCHAN=51
#     STOPCHAN=972
#         TINT=0.3000
#         TBIN=0.00419430
#       ACCLEN=2048 
#     DURATION=602.10
#     EXPOSURE=581.92
#        FOCUS=37.027
#       RA,DEC=11:56:09.57, 06:44:57.49
#      RA(deg)=180.49900
#     DEC(deg)=6.74924
#   WIDTH(deg)=3.0239x0.0390
#    AZIM(deg)=234.9069
#    ELEV(deg)=44.1079
#     COORDREF=RA_DEC_
#         HREF=178.9890
#         VREF=6.7492
#      RADESYS=FK5
#       OFFSYS=RADEC
#      EQUINOX=2000.00
#     IFATTENS=31.00, 16.00
#   BALANCELEV=1.200 
#   POWER_XLYR=[1.32, 1.18] 
#       VELDEF=RADI-OBS 
#     VELOCITY=0.000 
#         NPOL=2 
#      POLMODE=Linear 
#      POLTYPE=XXYY 
#      WARNING=None 
#     NOISECAL=HI 
#       PRECAL=2 
#      POSTCAL=2 
#     CRYOTEMP=17 
#      BOXTEMP=29 
#         TSYS=XX1:59.30, YY1:61.26
#         TSYS=XX2:67.97, YY2:106.71
#         TCAL=XX1:9.42, YY1:11.79
#         TCAL=XX2:9.16, YY2:9.99
# Calibrated spectra: Tsys*(ON-OFF)/OFF 
#                
#                
#Freq1(MHz)         XX1          YY1   Freq2(MHz)       XX2         YY2 
   1660.73430       6.3750       4.4109    1410.73430       3.7399       1.0998
   1660.71904       6.3288       4.4355    1410.71904       3.8901       1.1781
   1660.70378       6.4073       4.5110    1410.70378       3.7888       1.2517
   1660.68853       6.3624       4.5716    1410.68853       3.7754       1.2238
   1660.67327       6.3644       4.4902    1410.67327       3.6841       1.3274
   1660.65801       6.3825       4.5932    1410.65801       3.7321       1.2116
   1660.64275       6.3774       4.5312    1410.64275       3.7304       1.0218
   1660.62749       6.4233       4.5051    1410.62749       3.7927       1.1747
   1660.61223       6.3834       4.5747    1410.61223       3.8079       1.2078
   1660.59697       6.3782       4.4348    1410.59697       3.7987       1.3100
   1660.58171       6.3455       4.5470    1410.58171       3.8430       1.3529
   1660.56646       6.4185       4.6373    1410.56646       3.7993       1.3986
   1660.55120       6.4383       4.4908    1410.55120       3.7752       1.2707
   1660.53594      14.8250      33.2335    1410.53594       3.8250       1.3405
   1660.52068       6.0242       4.1824    1410.52068       3.7660       1.2112
   1660.50542       5.9998       4.1786    1410.50542       3.8631       1.2632
   1660.49016       6.0107       4.2652    1410.49016       3.8641       1.3680
   1660.47490       6.3693       4.5383    1410.47490       3.8023       1.4236
   1660.45964       6.3508       4.6324    1410.45964       3.8304       1.3632
   1660.44438       6.4796       4.5327    1410.44438       3.8455       1.3812
   1660.42913       6.3582       4.5430    1410.42913       3.8268       1.4626
   1660.41387       6.4311       4.5153    1410.41387       3.7330       1.4719
   1660.39861       6.5293       4.5429    1410.39861       3.9566       1.5557
   1660.38335       6.4534       4.5843    1410.38335       3.8159       1.4625
   1660.36809       6.4603       4.5201    1410.36809       3.8884       1.4596
   1660.35283       6.4176       4.4751    1410.35283       3.9259       1.5320
   1660.33757       6.4884       4.5598    1410.33757       3.9552       1.6204
   1660.32231       6.4225       4.5576    1410.32231       3.8534       1.4936
   1660.30706       6.4232       4.5613    1410.30706       3.8549       1.5919
   1660.29180       6.4850       4.5417    1410.29180       3.8850       1.5421
   1660.27654       6.3534       4.5685    1410.27654       4.0453       1.5292
   1660.26128       6.3968       4.5825    1410.26128       3.8730       1.5412
   1660.24602       6.4876       4.5783    1410.24602       3.9242       1.6622
   1660.23076       6.5150       4.5860    1410.23076       3.9953       1.6605
   1660.21550       6.4408       4.5943    1410.21550       3.9797       1.7603
   1660.20024       6.4919       4.5759    1410.20024       3.9865       1.6936
   1660.18499       6.4700       4.4971    1410.18499       3.9638       1.5981
   1660.16973       6.4557       4.5960    1410.16973       4.0120       1.8156
   1660.15447       6.4884       4.5503    1410.15447       3.9804       1.7837
   1660.13921       6.3216       4.5688    1410.13921       4.1180       1.7421
   1660.12395       6.3313       4.6603    1410.12395       4.0566       1.7564
   1660.10869       6.4566       4.5382    1410.10869       4.1151       1.8256
   1660.09343       6.4677       4.5640    1410.09343       4.0476       1.8140
   1660.07817       6.5043       4.4978    1410.07817       4.0156       1.8487
   1660.06292       6.3666       4.6392    1410.06292       4.0623       1.8507
   1660.04766      13.4137      29.7600    1410.04766       4.0407       1.7752
   1660.03240       6.1019       4.2826    1410.03240       4.2076       1.8391
   1660.01714       6.2002       4.3686    1410.01714       4.1514       1.8217
   1660.00188       6.0925       4.2355    1410.00188       4.1198       1.9903
   1659.98662       6.4525       4.5692    1409.98662       4.1175       2.0452
   1659.97136       6.4571       4.5778    1409.97136       4.1414       1.9526
   1659.95610       6.4707       4.5759    1409.95610       4.1671       2.0583
   1659.94084       6.3902       4.5606    1409.94084       4.1543       2.0550
   1659.92559       6.3673       4.6095    1409.92559       4.1683       1.9599
   1659.91033       6.4600       4.5329    1409.91033       4.1199       2.1103
   1659.89507       6.4640       4.5563    1409.89507       4.2254       2.0878
   1659.87981       6.4264       4.4190    1409.87981       4.2598       2.0641
   1659.86455       6.4623       4.5401    1409.86455       4.2381       2.0887
   1659.84929       6.4739       4.5898    1409.84929       4.3102       2.0539
   1659.83403       6.5073       4.5356    1409.83403       4.3029       1.9502
   1659.81877       6.4464       4.5605    1409.81877       4.1905       2.1780
   1659.80352       6.4495       4.5561    1409.80352       4.2706       2.1217
   1659.78826       6.4329       4.4932    1409.78826       4.3973       2.2958
   1659.77300       6.4237       4.6001    1409.77300       4.3017       2.2501
   1659.75774       6.4344       4.4576    1409.75774       4.3338       2.2711
   1659.74248       6.4669       4.4368    1409.74248       4.2911       2.3435
   1659.72722       6.4356       4.4383    1409.72722       4.3093       2.2043
   1659.71196       6.4441       4.4983    1409.71196       4.3745       2.1881
   1659.69670       6.4358       4.4330    1409.69670       4.3941       2.2920
   1659.68145       6.5116       4.5602    1409.68145       4.3399       2.3608
   1659.66619       6.5163       4.4857    1409.66619       4.4029       2.4176
   1659.65093       6.5002       4.4873    1409.65093       4.4496       2.4229
   1659.63567       6.4469       4.4751    1409.63567       4.4246       2.3607
   1659.62041       6.4345       4.5195    1409.62041       4.3092       2.3970
   1659.60515       6.4349       4.4310    1409.60515       4.4663       2.5027
   1659.58989       6.3605       4.4678    1409.58989       4.4908       2.5128
   1659.57463       6.3490       4.4511    1409.57463       4.4115       2.3891
   1659.55937      12.0118      25.5622    1409.55938       4.5432       2.4601
   1659.54412       6.1166       4.2932    1409.54412       4.5882       2.4918
   1659.52886       6.1726       4.2722    1409.52886       4.5897       2.5976
   1659.51360       6.2032       4.2615    1409.51360       4.4160       2.5643
   1659.49834       6.3951       4.4245    1409.49834       4.4724       2.6231
   1659.48308       6.4352       4.3570    1409.48308       4.4961       2.7048
   1659.46782       6.3890       4.3651    1409.46782       4.5911       2.6098
   1659.45256       6.3622       4.4669    1409.45256       4.5548       2.5508
   1659.43730       6.3707       4.3553    1409.43730       4.6448       2.7049
   1659.42205       6.3427       4.3940    1409.42205       4.5484       2.6353
   1659.40679       6.3458       4.4325    1409.40679       4.6962       2.5860
   1659.39153       6.4042       4.3698    1409.39153       4.6237       2.6868
   1659.37627       6.3309       4.3389    1409.37627       4.7450       2.7452
   1659.36101       6.4341       4.3406    1409.36101       4.6308       2.7631
   1659.34575       6.3606       4.3409    1409.34575       4.6502       2.7091
   1659.33049       6.2927       4.3772    1409.33049       4.6608       2.8637
   1659.31523       6.3286       4.3072    1409.31523       4.6322       2.7595
   1659.29998       6.3028       4.3171    1409.29998       4.7056       2.9177
   1659.28472       6.3156       4.2991    1409.28472       4.7309       2.7802
   1659.26946       6.2907       4.2880    1409.26946       4.6816       2.9618
   1659.25420       6.2802       4.2269    1409.25420       4.7615       2.9564
   1659.23894       6.3427       4.2137    1409.23894       4.7110       2.8662
   1659.22368       6.2850       4.2191    1409.22368       4.7291       2.9270
   1659.20842       6.2785       4.2674    1409.20842       4.7517       2.9775
   1659.19316       6.3675       4.2611    1409.19316       4.7931       3.0012
   1659.17791       6.3303       4.2113    1409.17791       4.7757       2.8487
   1659.16265       6.2275       4.2125    1409.16265       4.8261       3.0044
   1659.14739       6.2437       4.2319    1409.14739       4.7990       3.0308
   1659.13213       6.3415       4.1827    1409.13213       4.8775       3.0607
   1659.11687       6.2167       4.2796    1409.11687       4.8567       3.0416
   1659.10161       6.2501       4.0507    1409.10161       4.8913       3.1658
   1659.08635       6.2908       4.1272    1409.08635       4.8598       3.1893
   1659.07109      11.0325      23.2871    1409.07109       4.8912       3.1897
   1659.05583       6.1441       4.1066    1409.05583       4.9275       3.1744
   1659.04058       6.1465       4.0033    1409.04058       4.9503       3.2602
   1659.02532       6.1205       4.0826    1409.02532       4.8229       3.7394
   1659.01006       6.1899       4.0349    1409.01006       4.8478       3.2217
   1658.99480       6.2027       4.0303    1408.99480       4.9595       3.1369
   1658.97954       6.1727       4.0759    1408.97954       4.8795       3.3246
   1658.96428       6.1899       4.0563    1408.96428       4.9322       3.3160
   1658.94902       6.2324       4.0554    1408.94902       4.9593       3.4354
   1658.93376       6.0996       4.0745    1408.93376       5.0830       3.3246
   1658.91851       6.2094       4.0280    1408.91851       4.9686       3.3094
   1658.90325       6.1214       3.9850    1408.90325       4.9813       3.3935
   1658.88799       6.1210       4.0289    1408.88799       4.9991       3.3335
   1658.87273       6.1141       3.9213    1408.87273       5.0382       3.3276
   1658.85747       6.1668       3.9399    1408.85747       5.0559       3.4453
   1658.84221       6.0994       3.9502    1408.84221       5.0229       3.4667
   1658.82695       6.1295       3.9639    1408.82695       5.0542       3.6078
   1658.81169       6.1476       3.9152    1408.81169       5.1140       3.6210
   1658.79644       6.0572       3.9186    1408.79644       5.0948       3.4175
   1658.78118       6.0288       3.8563    1408.78118       5.1646       3.6330
   1658.76592       6.0508       3.9534    1408.76592       5.1026       3.5788
   1658.75066       6.0238       3.8559    1408.75066       5.1797       3.6143
   1658.73540       5.9797       3.8568    1408.73540       5.1643       3.6985
   1658.72014       6.0654       3.8087    1408.72014       5.1727       3.6665
   1658.70488       6.0272       3.8317    1408.70488       5.1556       3.6603
   1658.68962       6.0275       3.7993    1408.68962       5.1287       3.7781
   1658.67437       6.0293       3.7751    1408.67437       5.1074       3.7010
   1658.65911       6.0029       3.8122    1408.65911       5.2066       3.7420
   1658.64385       5.9988       3.7363    1408.64385       5.2098       3.7564
   1658.62859       6.0008       3.7207    1408.62859       5.1515       4.0002
   1658.61333       5.9310       3.7427    1408.61333       5.2632       3.8341
   1658.59807       5.8893       3.6888    1408.59807       5.2058       3.8239
   1658.58281      10.1286      22.4532    1408.58281       5.2715       3.8938
   1658.56755       5.9316       3.7016    1408.56755       5.2349       3.9067
   1658.55229       5.9246       3.6648    1408.55229       5.2214       3.8775
   1658.53704       5.9350       3.6763    1408.53704       5.2381       3.9115
   1658.52178       5.9351       3.6995    1408.52178       5.2701       3.9789
   1658.50652       5.9391       3.6509    1408.50652       5.2635       4.0949
   1658.49126       5.9647       3.6606    1408.49126       5.2218       4.1278
   1658.47600       5.8690       3.6601    1408.47600       5.1912       4.1162
   1658.46074       5.8767       3.6215    1408.46074       5.2424       4.1413
   1658.44548       5.8961       3.6075    1408.44548       5.3025       4.0166
   1658.43022       5.8254       3.5840    1408.43022       5.2957       4.1308
   1658.41497       5.8982       3.5975    1408.41497       5.3039       4.0906
   1658.39971       5.9302       3.5412    1408.39971       5.3085       4.1669
   1658.38445       5.7961       3.4815    1408.38445       5.2948       4.1778
   1658.36919       5.8602       3.5614    1408.36919       5.3021       4.3584
   1658.35393       5.8400       3.5076    1408.35393       5.3366       4.2824
   1658.33867       5.8863       3.5095    1408.33867       5.3641       4.4296
   1658.32341       5.7967       3.3852    1408.32341       5.4049       4.3785
   1658.30815       5.8706       3.3701    1408.30815       5.3967       4.2783
   1658.29290       5.7433       3.4320    1408.29290       5.2999       4.3346
   1658.27764       5.7290       3.3888    1408.27764       5.3440       4.3628
   1658.26238       5.7659       3.4375    1408.26238       5.4331       4.4600
   1658.24712       5.6702       3.3468    1408.24712       5.3725       4.5018
   1658.23186       5.7694       3.4277    1408.23186       5.4344       4.4879
   1658.21660       5.7883       3.3817    1408.21660       5.4078       4.5565
   1658.20134       5.7152       3.3328    1408.20134       5.4574       4.4860
   1658.18608       5.7283       3.2744    1408.18608       5.4279       4.5862
   1658.17083       5.7541       3.2492    1408.17083       5.4713       4.5807
   1658.15557       5.7192       3.2594    1408.15557       5.4570       4.5569
   1658.14031       5.7084       3.1597    1408.14031       5.4455       4.5574
   1658.12505       5.7488       3.1996    1408.12505       5.4171       4.6445
   1658.10979       5.7071       3.1447    1408.10979       5.4997       4.6732
   1658.09453       9.0221      22.0104    1408.09453       5.4777       4.6804
   1658.07927       5.6355       3.2280    1408.07927       5.4769       4.7279
   1658.06401       5.6477       3.1957    1408.06401       5.4908       4.7107
   1658.04875       5.5823       3.2068    1408.04875       5.5457       4.6749
   1658.03350       5.6508       3.2103    1408.03350       5.5478       4.7997
   1658.01824       5.5859       3.0897    1408.01824       5.5201       4.7796
   1658.00298       5.5952       3.1084    1408.00298       5.5305       4.8127
   1657.98772       5.5690       3.0785    1407.98772       5.5729       4.9621
   1657.97246       5.5592       2.9875    1407.97246       5.5001       4.8966
   1657.95720       5.5398       3.0891    1407.95720       5.5291       4.9001
   1657.94194       5.5468       3.0236    1407.94194       5.6125       4.9367
   1657.92668       5.5925       3.0332    1407.92668       5.5178       5.0416
   1657.91143       5.5149       2.9966    1407.91143       5.5985       4.8589
   1657.89617       5.5072       2.9683    1407.89617       5.6040       4.9228
   1657.88091       5.4712       2.9592    1407.88091       5.6013       5.1602
   1657.86565       5.5738       2.8822    1407.86565       5.6013       5.0419
   1657.85039       5.4485       2.9057    1407.85039       5.5612       5.0352
   1657.83513       5.4867       2.8852    1407.83513       5.5114       5.0902
   1657.81987       5.4276       2.8817    1407.81987       5.5468       5.0528
   1657.80461       5.4256       2.8627    1407.80461       5.5411       5.2280
   1657.78936       5.4413       2.8029    1407.78936       5.6244       5.1409
   1657.77410       5.4313       2.8084    1407.77410       5.6261       5.0858
   1657.75884       5.4120       2.7878    1407.75884       5.5997       5.2129
   1657.74358       5.3824       2.7161    1407.74358       5.6564       5.2903
   1657.72832       5.4692       2.7980    1407.72832       5.6271       5.2206
   1657.71306       5.4290       2.7690    1407.71306       5.5504       5.2588
   1657.69780       5.3846       2.7953    1407.69780       5.6628       5.3419
   1657.68254       5.3908       2.7756    1407.68254       5.6019       5.3779
   1657.66729       5.3730       2.6784    1407.66729       5.6392       5.4135
   1657.65203       5.2883       2.5502    1407.65203       5.5904       5.3107
   1657.63677       5.2761       2.6296    1407.63677       5.5312       5.3120
   1657.62151       5.2746       2.5306    1407.62151       5.5838       5.3926
   1657.60625       7.7802      20.8648    1407.60625       5.6097       5.4540
   1657.59099       5.3474       2.6048    1407.59099       5.5935       5.5122
   1657.57573       5.3394       2.5287    1407.57573       5.6685       5.4568
   1657.56047       5.2999       2.5501    1407.56047       5.6109       5.4211
   1657.54521       5.3339       2.5403    1407.54521       5.5608       5.5203
   1657.52996       5.2972       2.5444    1407.52996       5.5305       5.3738
   1657.51470       5.2698       2.5726    1407.51470       5.5810       5.5080
   1657.49944       5.2290       2.5060    1407.49944       5.6324       5.5331
   1657.48418       5.3300       2.5675    1407.48418       5.5910       5.6121
   1657.46892       5.1999       2.4782    1407.46892       5.5974       5.5859
   1657.45366       5.1964       2.4433    1407.45366       5.6386       5.6039
   1657.43840       5.2493       2.4891    1407.43840       5.6519       5.6395
   1657.42314       5.2544       2.4454    1407.42314       5.5951       5.6387
   1657.40789       5.2016       2.4115    1407.40789       5.5837       5.6478
   1657.39263       5.2484       2.4196    1407.39263       5.5749       5.5958
   1657.37737       5.2231       2.3795    1407.37737       5.6020       5.7458
   1657.36211       5.2251       2.3498    1407.36211       5.6088       5.7111
   1657.34685       5.1412       2.4172    1407.34685       5.6731       5.7262
   1657.33159       5.2157       2.3263    1407.33159       5.6111       5.7586
   1657.31633       5.1241       2.2734    1407.31633       5.5604       5.8580
   1657.30107       5.0477       2.3072    1407.30107       5.5404       5.8761
